time (s)	coil I (A)	last det (V)	int current (uC)
5888.865751	1.471765	1.499027	650.520203
5888.866664	1.902858	1.499027	2387.829346
5888.867564	1.857341	1.499027	4059.436523
5888.868477	1.798667	1.499027	5701.619629
5888.869406	1.740015	1.499027	7318.093262
5888.870320	1.205083	1.499027	8419.539062
5888.871211	0.101759	1.499027	8510.206055
5888.872145	0.091183	1.499027	8595.371094
5888.873053	0.091091	1.499027	8678.082031
5888.873960	0.091150	1.499027	8760.754883
5888.874849	0.091113	1.499027	8841.754883
5888.875790	0.091238	1.499027	8927.609375
5888.876692	0.091091	1.499027	9009.773437
5888.877581	0.091161	1.499027	9090.815430
5888.878525	0.091252	1.499027	9176.958008
5888.879426	0.091172	1.499027	9259.103516
5889.916876	1.458552	1.485572	646.138672
5889.917769	1.901741	1.485572	2344.393066
5889.918749	1.854467	1.485572	4161.770508
5889.919655	1.794818	1.485572	5787.875488
5889.920565	1.737579	1.485572	7369.072754
5889.921523	1.084995	1.485572	8408.498047
5889.922426	0.095442	1.485572	8494.681641
5889.923327	0.091077	1.485572	8576.742187
5889.924215	0.091110	1.485572	8657.647461
5889.925168	0.091194	1.485572	8744.555664
5889.926067	0.091241	1.485572	8826.582031
5889.926968	0.091146	1.485572	8908.705078
5889.927859	0.091198	1.485572	8989.961914
5889.928800	0.091245	1.485572	9075.823242
5889.929701	0.091110	1.485572	9157.913086
5889.930597	0.091223	1.485572	9239.649414
5890.961355	1.463210	1.503180	643.812622
5890.962324	1.901144	1.503180	2486.020996
5890.963230	1.853958	1.503180	4165.706543
5890.964128	1.795701	1.503180	5778.245605
5890.965062	1.737469	1.503180	7401.041992
5890.965997	1.089932	1.503180	8420.127930
5890.966895	0.095585	1.503180	8505.962891
5890.967803	0.091036	1.503180	8588.624023
5890.968737	0.091190	1.503180	8673.795898
5890.969646	0.091106	1.503180	8756.611328
5890.970539	0.091124	1.503180	8837.985352
5890.971474	0.091161	1.503180	8923.220703
5890.972373	0.091117	1.503180	9005.134766
5890.973272	0.091143	1.503180	9087.072266
5890.974155	0.091179	1.503180	9167.583984
5890.975090	0.091278	1.503180	9252.928711
5892.012505	1.487567	1.477918	666.430054
5892.013414	1.902675	1.477918	2395.961182
5892.014309	1.855697	1.477918	4056.810059
5892.015281	1.794811	1.477918	5801.366211
5892.016197	1.736832	1.477918	7392.304687
5892.017108	1.135496	1.477918	8426.741211
5892.018038	0.097119	1.477918	8517.062500
5892.018938	0.091113	1.477918	8599.064453
5892.019837	0.091143	1.477918	8681.001953
5892.020721	0.091099	1.477918	8761.533203
5892.021662	0.091198	1.477918	8847.349609
5892.022556	0.091091	1.477918	8928.785156
5892.023452	0.091091	1.477918	9010.403320
5892.024358	0.091165	1.477918	9092.998047
5892.025280	0.091267	1.477918	9177.146484
5892.026181	0.091055	1.477918	9259.186523
5893.055970	1.483162	1.525702	679.288025
5893.056873	1.902213	1.525702	2396.986572
5893.057771	1.856180	1.525702	4063.836426
5893.058725	1.795448	1.525702	5776.693848
5893.059637	1.738103	1.525702	7361.843750
5893.060537	1.182513	1.525702	8426.105469
5893.061462	0.099822	1.525702	8518.440430
5893.062380	0.091135	1.525702	8602.102539
5893.063289	0.091150	1.525702	8684.958008
5893.064178	0.091208	1.525702	8766.041992
5893.065122	0.091176	1.525702	8852.111328
5893.066034	0.091113	1.525702	8935.207031
5893.066921	0.091176	1.525702	9016.080078
5893.067857	0.091249	1.525702	9101.489258
5893.068760	0.091256	1.525702	9183.893555
5893.069660	0.091165	1.525702	9265.941406
5894.107650	1.486586	1.471703	737.346497
5894.108566	1.901279	1.471703	2478.918457
5894.109470	1.853994	1.471703	4154.929199
5894.110365	1.795671	1.471703	5762.055176
5894.111308	1.736331	1.471703	7399.415039
5894.112231	1.096406	1.471703	8411.398437
5894.113136	0.095592	1.471703	8497.909180
5894.114024	0.091091	1.471703	8578.797852
5894.114974	0.091176	1.471703	8665.415039
5894.115879	0.091077	1.471703	8747.839844
5894.116768	0.091095	1.471703	8828.823242
5894.117712	0.091143	1.471703	8914.862305
5894.118614	0.091102	1.471703	8997.036133
5894.119510	0.091088	1.471703	9078.650391
5894.120401	0.091080	1.471703	9159.802734
5894.121335	0.091154	1.471703	9244.940430
5895.150534	1.452184	1.557812	630.247803
5895.151483	1.901517	1.557812	2434.787842
5895.152408	1.854382	1.557812	4150.091309
5895.153317	1.795664	1.557812	5782.350098
5895.154211	1.738660	1.557812	7336.711914
5895.155179	1.098124	1.557812	8399.695312
5895.156074	0.096390	1.557812	8485.964844
5895.156959	0.091113	1.557812	8566.599609
5895.157904	0.091212	1.557812	8652.794922
5895.158805	0.091084	1.557812	8734.861328
5895.159711	0.091165	1.557812	8817.456055
5895.160600	0.091135	1.557812	8898.475586
5895.161542	0.091183	1.557812	8984.370117
5895.162446	0.091077	1.557812	9066.703125
5895.163338	0.091135	1.557812	9147.996094
5895.164274	0.091190	1.557812	9233.350586
5896.203211	1.466096	1.457156	646.548401
5896.204177	1.900638	1.457156	2482.565186
5896.205095	1.853210	1.457156	4183.812500
5896.205997	1.794763	1.457156	5802.688965
5896.206894	1.738059	1.457156	7361.728027
5896.207868	1.065696	1.457156	8399.715820
5896.208765	0.095277	1.457156	8485.179687
5896.209666	0.091073	1.457156	8567.236328
5896.210554	0.091139	1.457156	8648.167969
5896.211489	0.091227	1.457156	8733.464844
5896.212392	0.091055	1.457156	8815.687500
5896.213288	0.091117	1.457156	8897.328125
5896.214218	0.091128	1.457156	8982.077148
5896.215127	0.091165	1.457156	9064.945312
5896.216029	0.091084	1.457156	9147.103516
5896.216921	0.091058	1.457156	9228.327148
5897.246162	1.463035	1.561272	648.124390
5897.247052	1.901898	1.561272	2340.813721
5897.248019	1.854924	1.561272	4134.525391
5897.248936	1.795679	1.561272	5781.163086
5897.249832	1.738748	1.561272	7339.081055
5897.250786	1.115413	1.561272	8403.184570
5897.251699	0.096105	1.561272	8490.927734
5897.252602	0.091018	1.561272	8573.117187
5897.253491	0.091058	1.561272	8654.068359
5897.254446	0.091132	1.561272	8741.098633
5897.255344	0.091219	1.561272	8823.013672
5897.256247	0.091172	1.561272	8905.341797
5897.257146	0.091201	1.561272	8987.332031
5897.258074	0.091227	1.561272	9071.990234
5897.258981	0.091139	1.561272	9154.653320
5897.259870	0.091165	1.561272	9235.698242
5898.297338	1.501630	1.506269	732.795288
5898.298260	1.900961	1.506269	2485.481201
5898.299168	1.853529	1.506269	4168.485352
5898.300065	1.794840	1.506269	5778.457031
5898.301021	1.735305	1.506269	7437.408691
5898.301951	1.057896	1.506269	8421.251953
5898.302845	0.094768	1.506269	8505.974609
5898.303756	0.091025	1.506269	8588.898437
5898.304675	0.091121	1.506269	8672.638672
5898.305586	0.090970	1.506269	8755.512695
5898.306479	0.091055	1.506269	8836.824219
5898.307403	0.091066	1.506269	8920.968750
5898.308312	0.091058	1.506269	9003.741211
5898.309208	0.091000	1.506269	9085.277344
5898.310093	0.091062	1.506269	9165.867187
5898.311045	0.091132	1.506269	9252.624023
5899.342294	1.465492	1.535084	653.609375
5899.343187	1.902927	1.535084	2352.923340
5899.344152	1.854613	1.535084	4142.625000
5899.345068	1.795078	1.535084	5786.916504
5899.345972	1.738363	1.535084	7358.396484
5899.346869	1.149335	1.535084	8389.349609
5899.347816	0.096332	1.535084	8480.576172
5899.348722	0.091000	1.535084	8563.021484
5899.349620	0.091066	1.535084	8644.798828
5899.350548	0.091212	1.535084	8729.443359
5899.351456	0.091143	1.535084	8812.201172
5899.352359	0.091022	1.535084	8894.393555
5899.353246	0.091077	1.535084	8975.178711
5899.354209	0.091208	1.535084	9063.012695
5899.355109	0.091150	1.535084	9145.047852
5899.356009	0.091058	1.535084	9227.000000
5900.391889	1.469268	1.505399	653.824097
5900.392787	1.902656	1.505399	2362.409424
5900.393744	1.855459	1.505399	4138.083496
5900.394657	1.795613	1.505399	5777.478027
5900.395564	1.738151	1.505399	7353.980469
5900.396468	1.185948	1.505399	8426.078125
5900.397420	0.096453	1.505399	8517.901367
5900.398313	0.091099	1.505399	8599.252930
5900.399216	0.091077	1.505399	8681.495117
5900.400107	0.091157	1.505399	8762.715820
5900.401047	0.091176	1.505399	8848.420898
5900.401947	0.091011	1.505399	8930.330078
5900.402843	0.091077	1.505399	9011.934570
5900.403765	0.091157	1.505399	9095.981445
5900.404662	0.091117	1.505399	9177.712891
5900.405558	0.091003	1.505399	9259.251953
5901.437395	1.470458	1.574525	647.001404
5901.438314	1.902151	1.574525	2395.078125
5901.439219	1.856503	1.574525	4075.212891
5901.440137	1.797667	1.574525	5725.471191
5901.441063	1.739202	1.574525	7335.971680
5901.441987	1.170293	1.574525	8417.322266
5901.442875	0.099664	1.574525	8505.824219
5901.443813	0.091139	1.574525	8591.312500
5901.444711	0.091176	1.574525	8673.188477
5901.445615	0.091073	1.574525	8755.518555
5901.446505	0.091036	1.574525	8836.541016
5901.447450	0.091102	1.574525	8922.632812
5901.448358	0.091051	1.574525	9005.307617
5901.449259	0.091029	1.574525	9087.325195
5901.450185	0.091150	1.574525	9171.730469
5901.451085	0.091212	1.574525	9253.821289
5902.487041	1.526689	1.486700	755.711243
5902.487951	1.900983	1.486700	2485.605469
5902.488863	1.853573	1.486700	4176.063965
5902.489759	1.794760	1.486700	5784.168457
5902.490711	1.735697	1.486700	7436.551758
5902.491622	1.095666	1.486700	8434.704102
5902.492513	0.096204	1.486700	8520.421875
5902.493457	0.091073	1.486700	8606.394531
5902.494362	0.091110	1.486700	8688.848633
5902.495252	0.091069	1.486700	8769.900391
5902.496143	0.091099	1.486700	8851.069336
5902.497074	0.091216	1.486700	8935.991211
5902.497974	0.091139	1.486700	9018.016602
5902.498874	0.091044	1.486700	9099.956055
5902.499796	0.091058	1.486700	9183.912109
5902.500684	0.091121	1.486700	9264.827148
5903.533006	1.459559	1.600134	640.746521
5903.533962	1.901462	1.600134	2458.544434
5903.534875	1.854342	1.600134	4151.558594
5903.535775	1.795759	1.600134	5767.742187
5903.536717	1.737305	1.600134	7404.283203
5903.537640	1.107532	1.600134	8426.535156
5903.538543	0.096174	1.600134	8513.380859
5903.539436	0.091091	1.600134	8594.725586
5903.540375	0.091157	1.600134	8680.322266
5903.541283	0.091150	1.600134	8763.085937
5903.542183	0.091124	1.600134	8845.097656
5903.543069	0.091121	1.600134	8925.830078
5903.544013	0.091187	1.600134	9011.910156
5903.544919	0.091099	1.600134	9094.445312
5903.545818	0.091080	1.600134	9176.326172
5903.546749	0.091223	1.600134	9261.254883
5904.581082	1.489464	1.490108	676.216736
5904.581993	1.902389	1.490108	2409.292969
5904.582887	1.855909	1.490108	4068.476074
5904.583859	1.794250	1.490108	5812.487305
5904.584772	1.736880	1.490108	7398.258789
5904.585677	1.145120	1.490108	8434.591797
5904.586602	0.098397	1.490108	8525.609375
5904.587509	0.091205	1.490108	8608.332031
5904.588402	0.091095	1.490108	8689.679687
5904.589320	0.091106	1.490108	8773.315430
5904.590208	0.091102	1.490108	8854.213867
5904.591169	0.091121	1.490108	8941.781250
5904.592070	0.091047	1.490108	9023.814453
5904.592993	0.091176	1.490108	9107.969727
5904.593885	0.091113	1.490108	9189.243164
5904.594841	0.091102	1.490108	9276.336914
5905.629124	1.449576	1.576342	629.116150
5905.630071	1.901378	1.576342	2429.721191
5905.630984	1.854814	1.576342	4123.166992
5905.631888	1.796312	1.576342	5747.033203
5905.632780	1.739634	1.576342	7298.786621
5905.633738	1.151137	1.576342	8401.575195
5905.634636	0.098170	1.576342	8489.732422
5905.635538	0.091014	1.576342	8571.827148
5905.636477	0.091106	1.576342	8657.375977
5905.637384	0.091238	1.576342	8740.128906
5905.638285	0.091044	1.576342	8822.159180
5905.639171	0.091091	1.576342	8902.866211
5905.640111	0.091121	1.576342	8988.519531
5905.641011	0.091110	1.576342	9070.518555
5905.641912	0.091179	1.576342	9152.670898
5905.642798	0.091029	1.576342	9233.322266
5906.675164	1.479027	1.524699	674.436340
5906.676065	1.902506	1.524699	2388.594238
5906.676957	1.856294	1.524699	4044.408447
5906.677917	1.795433	1.524699	5768.024414
5906.678827	1.738081	1.524699	7349.678223
5906.679729	1.189578	1.524699	8422.677734
5906.680676	0.099943	1.524699	8517.323242
5906.681584	0.091110	1.524699	8600.050781
5906.682505	0.091106	1.524699	8683.958984
5906.683396	0.091084	1.524699	8765.115234
5906.684347	0.091128	1.524699	8851.778320
5906.685248	0.091143	1.524699	8933.897461
5906.686168	0.091124	1.524699	9017.731445
5906.687057	0.091110	1.524699	9098.727539
5906.687998	0.091216	1.524699	9184.561523
5906.688897	0.091139	1.524699	9266.495117
5907.724775	1.503816	1.553211	702.282043
5907.725675	1.902037	1.553211	2414.115479
5907.726624	1.853987	1.553211	4173.548828
5907.727540	1.794177	1.553211	5817.015137
5907.728442	1.737371	1.553211	7384.123535
5907.729341	1.128582	1.553211	8398.718750
5907.730292	0.095189	1.553211	8489.244141
5907.731198	0.091003	1.553211	8571.693359
5907.732092	0.091150	1.553211	8653.181641
5907.733023	0.091161	1.553211	8738.052734
5907.733919	0.091208	1.553211	8819.775391
5907.734817	0.091135	1.553211	8901.615234
5907.735704	0.091172	1.553211	8982.484375
5907.736651	0.091205	1.553211	9068.855469
5907.737541	0.091110	1.553211	9149.943359
5907.738442	0.091117	1.553211	9232.040039
5908.770252	1.463280	1.534053	642.379944
5908.771228	1.900507	1.534053	2497.274414
5908.772128	1.853496	1.534053	4165.420898
5908.773022	1.795609	1.534053	5770.695312
5908.773975	1.736294	1.534053	7425.383301
5908.774885	1.094117	1.534053	8421.030273
5908.775800	0.095336	1.534053	8508.262695
5908.776696	0.091003	1.534053	8589.801758
5908.777642	0.091110	1.534053	8675.991211
5908.778545	0.091128	1.534053	8758.279297
5908.779436	0.091143	1.534053	8839.487305
5908.780390	0.091165	1.534053	8926.458008
5908.781297	0.091066	1.534053	9009.054687
5908.782197	0.091165	1.534053	9091.102539
5908.783086	0.091132	1.534053	9172.118164
5908.784031	0.091150	1.534053	9258.254883
5909.820375	1.475134	1.577986	660.860168
5909.821280	1.902232	1.577986	2382.379639
5909.822178	1.857140	1.577986	4050.091309
5909.823122	1.796147	1.577986	5745.654297
5909.824039	1.738367	1.577986	7339.736328
5909.824958	1.175442	1.577986	8419.967773
5909.825847	0.099694	1.577986	8508.595703
5909.826791	0.091172	1.577986	8594.662109
5909.827708	0.091113	1.577986	8678.212891
5909.828603	0.091190	1.577986	8759.828125
5909.829537	0.091165	1.577986	8844.975586
5909.830436	0.091150	1.577986	8926.918945
5909.831332	0.091128	1.577986	9008.569336
5909.832223	0.091132	1.577986	9089.767578
5909.833156	0.091234	1.577986	9174.888672
5909.834062	0.091084	1.577986	9257.411133
5910.865355	1.454374	1.515152	638.470093
5910.866250	1.902506	1.515152	2341.212891
5910.867240	1.852998	1.515152	4175.681152
5910.868151	1.793646	1.515152	5809.692871
5910.869072	1.736104	1.515152	7408.644531
5910.869978	1.091426	1.515152	8397.476562
5910.870924	0.094973	1.515152	8487.321289
5910.871823	0.091088	1.515152	8569.208984
5910.872709	0.091121	1.515152	8649.941406
5910.873638	0.091227	1.515152	8734.691406
5910.874543	0.091080	1.515152	8817.119141
5910.875432	0.091168	1.515152	8898.167969
5910.876360	0.091190	1.515152	8982.791992
5910.877265	0.091187	1.515152	9065.315430
5910.878176	0.091080	1.515152	9148.290039
5910.879075	0.091146	1.515152	9230.230469
5911.915470	1.467144	1.611993	651.411743
5911.916445	1.900356	1.611993	2504.259277
5911.917361	1.852456	1.611993	4201.108887
5911.918257	1.794166	1.611993	5808.681641
5911.919198	1.735759	1.611993	7442.031250
5911.920123	1.066088	1.611993	8428.162109
5911.921026	0.094922	1.611993	8513.876953
5911.921919	0.091172	1.611993	8595.292969
5911.922849	0.091245	1.611993	8680.151367
5911.923752	0.091201	1.611993	8762.505859
5911.924654	0.091128	1.611993	8844.703125
5911.925545	0.091088	1.611993	8925.862305
5911.926488	0.091274	1.611993	9011.933594
5911.927392	0.091238	1.611993	9094.412109
5911.928286	0.091157	1.611993	9175.906250
5911.929212	0.091230	1.611993	9260.385742
5912.960478	1.482103	1.507249	669.910706
5912.961384	1.902147	1.507249	2393.256104
5912.962276	1.856960	1.507249	4049.664795
5912.963248	1.794609	1.507249	5794.025391
5912.964161	1.736902	1.507249	7379.816895
5912.965074	1.146394	1.507249	8426.474609
5912.965962	0.098470	1.507249	8513.916016
5912.966907	0.091161	1.507249	8600.063477
5912.967804	0.091128	1.507249	8681.805664
5912.968691	0.091194	1.507249	8762.694336
5912.969623	0.091223	1.507249	8847.713867
5912.970531	0.091121	1.507249	8930.451172
5912.971430	0.091161	1.507249	9012.405273
5912.972321	0.091165	1.507249	9093.632812
5912.973264	0.091256	1.507249	9179.687500
5912.974168	0.091077	1.507249	9262.020508
5914.011090	1.464511	1.620992	650.242676
5914.011982	1.901484	1.620992	2346.366699
5914.012947	1.854335	1.620992	4135.799805
5914.013858	1.795532	1.620992	5771.529785
5914.014760	1.738477	1.620992	7339.635742
5914.015709	1.140110	1.620992	8421.599609
5914.016599	0.097980	1.620992	8508.801758
5914.017497	0.091058	1.620992	8590.572266
5914.018384	0.091051	1.620992	8671.334961
5914.019328	0.091099	1.620992	8757.332031
5914.020218	0.091113	1.620992	8838.422852
5914.021122	0.091139	1.620992	8920.812500
5914.022015	0.091084	1.620992	9002.150391
5914.022957	0.091245	1.620992	9088.103516
5914.023866	0.091066	1.620992	9170.881836
5914.024766	0.091124	1.620992	9252.893555
5915.055049	1.457849	1.552789	637.080078
5915.055996	1.901349	1.552789	2437.657715
5915.056913	1.854624	1.552789	4138.348145
5915.057813	1.796393	1.552789	5755.101562
5915.058708	1.739612	1.552789	7312.054199
5915.059677	1.129490	1.552789	8406.529297
5915.060572	0.097291	1.552789	8493.604492
5915.061479	0.091029	1.552789	8576.167969
5915.062366	0.091113	1.552789	8656.985352
5915.063320	0.091146	1.552789	8743.938477
5915.064226	0.091095	1.552789	8826.470703
5915.065115	0.091165	1.552789	8907.515625
5915.066053	0.091154	1.552789	8993.017578
5915.066961	0.091113	1.552789	9075.748047
5915.067855	0.091102	1.552789	9157.193359
5915.068745	0.091124	1.552789	9238.293945
5916.106203	1.482817	1.594236	664.302185
5916.107124	1.901843	1.594236	2415.899902
5916.108020	1.856199	1.594236	4079.053955
5916.108958	1.796063	1.594236	5763.761230
5916.109877	1.737700	1.594236	7360.707520
5916.110800	1.152206	1.594236	8424.193359
5916.111688	0.098606	1.594236	8511.755859
5916.112639	0.091198	1.594236	8598.484375
5916.113541	0.091179	1.594236	8680.727539
5916.114433	0.091194	1.594236	8762.072266
5916.115351	0.091179	1.594236	8845.774414
5916.116260	0.091198	1.594236	8928.672852
5916.117167	0.091146	1.594236	9011.342773
5916.118059	0.091208	1.594236	9092.701172
5916.118982	0.091263	1.594236	9176.937500
5916.119888	0.091187	1.594236	9259.552734
5917.150674	1.462390	1.566920	652.225952
5917.151568	1.902576	1.566920	2353.128662
5917.152525	1.855492	1.566920	4128.834473
5917.153441	1.795122	1.566920	5773.166016
5917.154356	1.737623	1.566920	7363.091309
5917.155260	1.168887	1.566920	8419.764648
5917.156200	0.095995	1.566920	8510.000000
5917.157107	0.091047	1.566920	8592.580078
5917.158003	0.091139	1.566920	8674.240234
5917.158893	0.091121	1.566920	8755.337891
5917.159841	0.091198	1.566920	8841.792969
5917.160739	0.091099	1.566920	8923.599609
5917.161625	0.091216	1.566920	9004.416992
5917.162564	0.091212	1.566920	9090.065430
5917.163467	0.091194	1.566920	9172.413086
5917.164368	0.091132	1.566920	9254.522461
5918.201292	1.459863	1.598945	642.339844
5918.202262	1.900723	1.598945	2486.040527
5918.203170	1.853137	1.598945	4168.689453
5918.204074	1.794598	1.598945	5791.006348
5918.204970	1.737426	1.598945	7347.739746
5918.205917	1.117987	1.598945	8406.473633
5918.206824	0.096606	1.598945	8494.095703
5918.207723	0.090989	1.598945	8575.894531
5918.208653	0.091084	1.598945	8660.602539
5918.209557	0.091088	1.598945	8742.945312
5918.210458	0.091069	1.598945	8824.999023
5918.211348	0.091058	1.598945	8906.041016
5918.212305	0.091150	1.598945	8993.271484
5918.213203	0.091161	1.598945	9075.133789
5918.214107	0.091102	1.598945	9157.490234
5918.214993	0.091124	1.598945	9238.226562
5919.245814	1.518560	1.563109	731.945740
5919.246735	1.900909	1.563109	2482.683350
5919.247635	1.854280	1.563109	4151.535156
5919.248590	1.793540	1.563109	5864.366211
5919.249504	1.735203	1.563109	7450.341309
5919.250411	1.082816	1.563109	8432.455078
5919.251301	0.096017	1.563109	8517.910156
5919.252238	0.091154	1.563109	8603.321289
5919.253141	0.091132	1.563109	8685.613281
5919.254039	0.091077	1.563109	8767.400391
5919.254936	0.091080	1.563109	8849.099609
5919.255862	0.091256	1.563109	8933.602539
5919.256764	0.091066	1.563109	9015.744141
5919.257655	0.091106	1.563109	9096.919922
5919.258609	0.091198	1.563109	9183.921875
5919.259511	0.091234	1.563109	9266.214844
5920.295909	1.486487	1.630608	670.405518
5920.296798	1.902199	1.630608	2361.459961
5920.297694	1.857755	1.630608	4026.008545
5920.298637	1.797429	1.630608	5720.984375
5920.299550	1.739352	1.630608	7309.012695
5920.300467	1.209727	1.630608	8418.332031
5920.301356	0.101799	1.630608	8508.832031
5920.302308	0.091176	1.630608	8595.630859
5920.303219	0.091187	1.630608	8678.702148
5920.304108	0.091194	1.630608	8759.773437
5920.305050	0.091230	1.630608	8845.712891
5920.305947	0.091230	1.630608	8927.546875
5920.306838	0.091143	1.630608	9008.754883
5920.307728	0.091139	1.630608	9089.868164
5920.308660	0.091256	1.630608	9174.918945
5920.309559	0.091176	1.630608	9256.885742
5921.341387	1.464100	1.555890	642.740051
5921.342349	1.901034	1.555890	2471.534668
5921.343272	1.853276	1.555890	4182.108887
5921.344167	1.794745	1.555890	5788.405273
5921.345111	1.735983	1.555890	7427.172852
5921.346032	1.084570	1.555890	8426.062500
5921.346933	0.095511	1.555890	8512.118164
5921.347820	0.091029	1.555890	8592.861328
5921.348775	0.091274	1.555890	8680.028320
5921.349677	0.091132	1.555890	8762.229492
5921.350571	0.091154	1.555890	8843.720703
5921.351488	0.091212	1.555890	8927.362305
5921.352395	0.091252	1.555890	9010.127930
5921.353298	0.091161	1.555890	9092.446289
5921.354187	0.091194	1.555890	9173.517578
5921.355119	0.091278	1.555890	9258.588867
5922.390476	1.454667	1.632867	632.780029
5922.391414	1.901067	1.632867	2415.980957
5922.392341	1.854262	1.632867	4134.881348
5922.393258	1.794858	1.632867	5780.766602
5922.394166	1.737730	1.632867	7358.625000
5922.395122	1.098622	1.632867	8408.907227
5922.396025	0.096138	1.632867	8495.719727
5922.396929	0.091139	1.632867	8578.109375
5922.397816	0.091161	1.632867	8658.968750
5922.398754	0.091256	1.632867	8744.567383
5922.399656	0.091106	1.632867	8826.745117
5922.400557	0.091216	1.632867	8908.930664
5922.401483	0.091282	1.632867	8993.458008
5922.402388	0.091252	1.632867	9076.041016
5922.403295	0.091176	1.632867	9158.737305
5922.404182	0.091223	1.632867	9239.652344
5923.436998	1.453744	1.557268	630.924805
5923.437938	1.901133	1.557268	2417.989746
5923.438867	1.854206	1.557268	4140.547363
5923.439784	1.794858	1.557268	5786.432617
5923.440686	1.737916	1.557268	7354.033203
5923.441641	1.100592	1.557268	8405.098633
5923.442546	0.095988	1.557268	8491.967773
5923.443448	0.091157	1.557268	8574.191406
5923.444334	0.091095	1.557268	8654.901367
5923.445280	0.091205	1.557268	8741.180664
5923.446177	0.091183	1.557268	8822.971680
5923.447074	0.091117	1.557268	8904.703125
5923.448004	0.091161	1.557268	8989.482422
5923.448912	0.091179	1.557268	9072.273437
5923.449818	0.091179	1.557268	9154.881836
5923.450720	0.091161	1.557268	9237.109375
5924.485586	1.473010	1.629307	646.651489
5924.486486	1.902356	1.629307	2358.771973
5924.487381	1.857971	1.629307	4021.656250
5924.488324	1.797477	1.629307	5716.676758
5924.489237	1.739883	1.629307	7305.189941
5924.490156	1.208353	1.629307	8415.666992
5924.491044	0.101997	1.629307	8506.240234
5924.491981	0.091219	1.629307	8591.712891
5924.492890	0.091143	1.629307	8674.561523
5924.493780	0.091157	1.629307	8755.691406
5924.494706	0.091219	1.629307	8840.161133
5924.495606	0.091238	1.629307	8922.275391
5924.496504	0.091201	1.629307	9004.173828
5924.497394	0.091117	1.629307	9085.267578
5924.498339	0.091267	1.629307	9171.514648
5924.499245	0.091245	1.629307	9254.182617
5925.533134	1.456919	1.584153	642.501282
5925.534029	1.901873	1.584153	2344.677246
5925.534983	1.854675	1.584153	4114.037598
5925.535898	1.795591	1.584153	5757.002930
5925.536805	1.738656	1.584153	7333.963867
5925.537742	1.135294	1.584153	8397.734375
5925.538664	0.096475	1.584153	8486.683594
5925.539568	0.091077	1.584153	8569.016602
5925.540466	0.091135	1.584153	8650.856445
5925.541400	0.091187	1.584153	8736.024414
5925.542307	0.091091	1.584153	8818.644531
5925.543208	0.091099	1.584153	8900.724609
5925.544091	0.091106	1.584153	8981.170898
5925.545025	0.091179	1.584153	9066.332031
5925.545931	0.091187	1.584153	9148.947266
5925.546824	0.091219	1.584153	9230.406250
5926.580169	1.448265	1.632718	627.098938
5926.581100	1.901649	1.632718	2397.534180
5926.582017	1.855558	1.632718	4099.080566
5926.582932	1.796543	1.632718	5742.917480
5926.583828	1.739722	1.632718	7301.708008
5926.584789	1.143538	1.632718	8400.647461
5926.585686	0.097958	1.632718	8488.515625
5926.586586	0.091091	1.632718	8570.498047
5926.587472	0.091161	1.632718	8651.266602
5926.588408	0.091241	1.632718	8736.668945
5926.589324	0.091077	1.632718	8820.094727
5926.590221	0.091168	1.632718	8901.873047
5926.591152	0.091205	1.632718	8986.785156
5926.592054	0.091260	1.632718	9069.101562
5926.592955	0.091073	1.632718	9151.158203
5926.593875	0.091194	1.632718	9235.056641
5927.628751	1.471501	1.582654	653.346680
5927.629649	1.902572	1.582654	2361.856445
5927.630547	1.857305	1.582654	4029.715820
5927.631507	1.796433	1.582654	5754.291504
5927.632416	1.738788	1.582654	7334.849609
5927.633322	1.205478	1.582654	8427.012695
5927.634256	0.101539	1.582654	8521.850586
5927.635158	0.091201	1.582654	8604.114258
5927.636067	0.091124	1.582654	8686.946289
5927.636956	0.091110	1.582654	8767.942383
5927.637888	0.091219	1.582654	8852.958984
5927.638792	0.091165	1.582654	8935.372070
5927.639697	0.091157	1.582654	9017.869141
5927.640584	0.091176	1.582654	9098.742187
5927.641529	0.091187	1.582654	9184.913086
5927.642434	0.091172	1.582654	9267.423828
5928.674295	1.486139	1.632815	717.805054
5928.675214	1.900961	1.632815	2464.788086
5928.676122	1.853745	1.632815	4147.988770
5928.677019	1.795195	1.632815	5758.278809
5928.677984	1.735151	1.632815	7432.700195
5928.678908	1.064967	1.632815	8416.729492
5928.679801	0.095131	1.632815	8501.680664
5928.680710	0.091058	1.632815	8584.453125
5928.681635	0.091161	1.632815	8668.777344
5928.682545	0.091058	1.632815	8751.640625
5928.683435	0.091084	1.632815	8832.705078
5928.684359	0.091201	1.632815	8916.974609
5928.685262	0.091172	1.632815	8999.302734
5928.686166	0.091077	1.632815	9081.635742
5928.687056	0.091139	1.632815	9162.749023
5928.688005	0.091187	1.632815	9249.285156
5929.724403	1.525474	1.584741	732.227295
5929.725326	1.901005	1.584741	2486.854492
5929.726238	1.853701	1.584741	4177.430176
5929.727133	1.794525	1.584741	5783.530273
5929.728087	1.735873	1.584741	7439.552734
5929.729012	1.086350	1.584741	8444.426758
5929.729897	0.096068	1.584741	8529.447266
5929.730836	0.091168	1.584741	8615.054687
5929.731737	0.091198	1.584741	8697.223633
5929.732639	0.091128	1.584741	8779.420898
5929.733532	0.091102	1.584741	8860.775391
5929.734474	0.091161	1.584741	8946.649414
5929.735377	0.091176	1.584741	9028.980469
5929.736288	0.091124	1.584741	9111.995117
5929.737181	0.091161	1.584741	9193.401367
5929.738119	0.091208	1.584741	9278.955078
5930.769357	1.458871	1.633045	646.279724
5930.770249	1.901818	1.633045	2342.700928
5930.771198	1.854998	1.633045	4103.093750
5930.772115	1.795833	1.633045	5749.872070
5930.773023	1.738751	1.633045	7328.658203
5930.773971	1.130413	1.633045	8400.289062
5930.774881	0.096603	1.633045	8488.197266
5930.775778	0.091102	1.633045	8569.916016
5930.776670	0.091143	1.633045	8651.214844
5930.777620	0.091168	1.633045	8737.824219
5930.778526	0.091102	1.633045	8820.363281
5930.779420	0.091150	1.633045	8901.851562
5930.780307	0.091128	1.633045	8982.681641
5930.781237	0.091201	1.633045	9067.499023
5930.782147	0.091117	1.633045	9150.415039
5930.783046	0.091219	1.633045	9232.420898
5931.819978	1.456143	1.580894	640.702698
5931.820950	1.901038	1.580894	2488.511230
5931.821866	1.852833	1.580894	4185.706543
5931.822768	1.794133	1.580894	5804.014648
5931.823674	1.736235	1.580894	7377.043945
5931.824640	1.057676	1.580894	8398.758789
5931.825550	0.094702	1.580894	8484.937500
5931.826445	0.091124	1.580894	8566.494141
5931.827363	0.091143	1.580894	8650.163086
5931.828261	0.091179	1.580894	8732.041992
5931.829161	0.091154	1.580894	8814.080078
5931.830053	0.091135	1.580894	8895.373047
5931.830996	0.091190	1.580894	8981.365234
5931.831900	0.091201	1.580894	9063.811523
5931.832792	0.091179	1.580894	9145.143555
5931.833699	0.091245	1.580894	9227.903320
5932.864489	1.490347	1.632912	675.127014
5932.865410	1.901363	1.632912	2426.282715
5932.866308	1.855605	1.632912	4092.616455
5932.867244	1.795485	1.632912	5773.189941
5932.868151	1.737806	1.632912	7349.380371
5932.869069	1.168953	1.632912	8422.478516
5932.869956	0.099518	1.632912	8510.750977
5932.870907	0.091201	1.632912	8597.483398
5932.871812	0.091102	1.632912	8679.930664
5932.872706	0.091044	1.632912	8761.324219
5932.873613	0.091172	1.632912	8844.017578
5932.874541	0.091216	1.632912	8928.666016
5932.875444	0.091124	1.632912	9010.951172
5932.876333	0.091099	1.632912	9091.937500
5932.877263	0.091165	1.632912	9176.720703
5932.878170	0.091132	1.632912	9259.376953
5933.915109	1.491101	1.619812	675.468811
5933.916007	1.902517	1.619812	2383.928955
5933.916901	1.856931	1.619812	4044.025391
5933.917862	1.795781	1.619812	5769.770996
5933.918782	1.737722	1.619812	7368.475586
5933.919686	1.163331	1.619812	8420.126953
5933.920583	0.098881	1.619812	8508.823242
5933.921532	0.091088	1.619812	8595.265625
5933.922436	0.091088	1.619812	8677.608398
5933.923322	0.091124	1.619812	8758.344727
5933.924273	0.091198	1.619812	8845.073242
5933.925176	0.091088	1.619812	8927.325195
5933.926068	0.091058	1.619812	9008.548828
5933.927007	0.091212	1.619812	9094.197266
5933.927907	0.091249	1.619812	9176.321289
5933.928795	0.091113	1.619812	9257.229492
5934.959055	1.463624	1.632839	645.458313
5934.959947	1.901228	1.632839	2341.353760
5934.960925	1.853935	1.632839	4154.502930
5934.961841	1.794639	1.632839	5798.392090
5934.962750	1.737173	1.632839	7377.482422
5934.963703	1.087808	1.632839	8414.163086
5934.964598	0.095914	1.632839	8500.006836
5934.965494	0.091036	1.632839	8581.575195
5934.966387	0.091150	1.632839	8662.971680
5934.967327	0.091183	1.632839	8748.683594
5934.968221	0.091143	1.632839	8830.165039
5934.969127	0.091154	1.632839	8912.750000
5934.970020	0.091154	1.632839	8994.150391
5934.970972	0.091282	1.632839	9081.050781
5934.971879	0.091113	1.632839	9163.690430
5934.972774	0.091165	1.632839	9245.282227
5936.010184	1.462830	1.617250	643.645020
5936.011164	1.900646	1.617250	2506.277832
5936.012072	1.853057	1.617250	4188.853027
5936.012968	1.794518	1.617250	5796.741211
5936.013902	1.736587	1.617250	7418.713379
5936.014830	1.086057	1.617250	8426.574219
5936.015718	0.095863	1.617250	8511.700195
5936.016611	0.091073	1.617250	8593.028320
5936.017548	0.091143	1.617250	8678.428711
5936.018458	0.091062	1.617250	8761.294922
5936.019358	0.091106	1.617250	8843.290039
5936.020248	0.091176	1.617250	8924.436523
5936.021199	0.091135	1.617250	9011.106445
5936.022105	0.091099	1.617250	9093.641602
5936.022994	0.091099	1.617250	9174.627930
5936.023934	0.091088	1.617250	9260.250000
5937.054181	1.492123	1.632714	680.408020
5937.055098	1.901114	1.632714	2423.729980
5937.056006	1.854939	1.632714	4108.014648
5937.056946	1.794503	1.632714	5794.847656
5937.057859	1.736887	1.632714	7380.625488
5937.058770	1.145706	1.632714	8424.363281
5937.059657	0.098430	1.632714	8511.670898
5937.060612	0.091080	1.632714	8598.652344
5937.061521	0.091113	1.632714	8681.474609
5937.062411	0.091121	1.632714	8762.572266
5937.063346	0.091208	1.632714	8847.852539
5937.064244	0.091274	1.632714	8929.817383
5937.065138	0.091121	1.632714	9011.279297
5937.066029	0.091161	1.632714	9092.503906
5937.066959	0.091219	1.632714	9177.337891
5937.067861	0.091212	1.632714	9259.611328
5938.105815	1.467378	1.618736	661.787415
5938.106713	1.902594	1.618736	2370.316895
5938.107665	1.854899	1.618736	4136.180664
5938.108564	1.795906	1.618736	5750.700195
5938.109462	1.739297	1.618736	7312.588867
5938.110422	1.138048	1.618736	8405.115234
5938.111329	0.097075	1.618736	8493.162109
5938.112231	0.091095	1.618736	8575.330078
5938.113117	0.091208	1.618736	8656.140625
5938.114070	0.091208	1.618736	8743.062500
5938.114971	0.091066	1.618736	8825.112305
5938.115874	0.091135	1.618736	8907.407227
5938.116760	0.091146	1.618736	8988.163086
5938.117700	0.091135	1.618736	9073.830078
5938.118593	0.091157	1.618736	9155.233398
5938.119483	0.091113	1.618736	9236.324219
5939.149820	1.477936	1.632980	722.710571
5939.150740	1.900657	1.632980	2471.314697
5939.151648	1.853485	1.632980	4154.279297
5939.152542	1.795364	1.632980	5759.334473
5939.153500	1.735448	1.632980	7421.893555
5939.154414	1.087694	1.632980	8416.045898
5939.155309	0.095885	1.632980	8501.863281
5939.156194	0.091121	1.632980	8582.504883
5939.157147	0.091198	1.632980	8669.416016
5939.158047	0.091088	1.632980	8751.394531
5939.158945	0.091113	1.632980	8833.213867
5939.159873	0.091234	1.632980	8917.878906
5939.160790	0.091212	1.632980	9001.520508
5939.161695	0.091066	1.632980	9083.934570
5939.162587	0.091132	1.632980	9165.223633
5939.163537	0.091285	1.632980	9251.944336
5940.200957	1.525258	1.613677	732.123657
5940.201864	1.901100	1.613677	2456.421387
5940.202796	1.853174	1.613677	4183.579590
5940.203691	1.794038	1.613677	5789.243652
5940.204649	1.734998	1.613677	7451.371094
5940.205549	1.094788	1.613677	8436.679687
5940.206439	0.096240	1.613677	8522.333008
5940.207371	0.091113	1.613677	8607.250977
5940.208277	0.091014	1.613677	8689.709961
5940.209168	0.091117	1.613677	8770.895508
5940.210098	0.091179	1.613677	8855.692383
5940.211003	0.091150	1.613677	8938.182617
5940.211916	0.091102	1.613677	9021.359375
5940.212813	0.091198	1.613677	9103.163086
5940.213755	0.091187	1.613677	9189.060547
5940.214665	0.091198	1.613677	9272.049805
5941.244878	1.465693	1.632920	647.836487
5941.245770	1.902601	1.632920	2344.956787
5941.246714	1.855389	1.632920	4096.444336
5941.247642	1.795990	1.632920	5763.123047
5941.248548	1.738645	1.632920	7338.335449
5941.249473	1.142776	1.632920	8395.403320
5941.250400	0.097006	1.632920	8485.327148
5941.251301	0.091069	1.632920	8567.380859
5941.252193	0.091176	1.632920	8648.708984
5941.253137	0.091230	1.632920	8734.830078
5941.254042	0.091128	1.632920	8817.300781
5941.254939	0.091198	1.632920	8899.104492
5941.255831	0.091121	1.632920	8980.383789
5941.256764	0.091198	1.632920	9065.470703
5941.257679	0.091146	1.632920	9148.869141
5941.258572	0.091124	1.632920	9230.243164
5942.295508	1.473296	1.630293	664.456482
5942.296405	1.902719	1.630293	2371.195068
5942.297359	1.853672	1.630293	4139.598145
5942.298283	1.793917	1.630293	5797.177734
5942.299207	1.736301	1.630293	7401.520020
5942.300115	1.105499	1.630293	8405.313477
5942.301065	0.094640	1.630293	8495.221680
5942.301968	0.091014	1.630293	8577.407227
5942.302858	0.091117	1.630293	8658.500977
5942.303790	0.091208	1.630293	8743.506836
5942.304704	0.091124	1.630293	8826.793945
5942.305598	0.091157	1.630293	8908.288086
5942.306528	0.091135	1.630293	8993.043945
5942.307438	0.091154	1.630293	9075.994141
5942.308342	0.091106	1.630293	9158.353516
5942.309237	0.091172	1.630293	9239.952148
5943.340001	1.480261	1.632851	661.676758
5943.340927	1.901492	1.632851	2422.458008
5943.341823	1.855829	1.632851	4085.280518
5943.342769	1.795726	1.632851	5784.037598
5943.343686	1.737246	1.632851	7377.092285
5943.344595	1.152755	1.632851	8424.946289
5943.345486	0.098635	1.632851	8512.830078
5943.346433	0.091187	1.632851	8599.183594
5943.347342	0.091139	1.632851	8682.029297
5943.348246	0.091179	1.632851	8764.455078
5943.349131	0.091201	1.632851	8845.167969
5943.350072	0.091176	1.632851	8930.963867
5943.350979	0.091150	1.632851	9013.636719
5943.351866	0.091176	1.632851	9094.509766
5943.352800	0.091208	1.632851	9179.698242
5943.353704	0.091216	1.632851	9262.157227
5944.390604	1.464045	1.632618	645.644043
5944.391507	1.902770	1.632618	2363.845215
5944.392404	1.856558	1.632618	4029.177490
5944.393365	1.796473	1.632618	5755.588379
5944.394275	1.738315	1.632618	7337.455078
5944.395188	1.183601	1.632618	8418.083008
5944.396114	0.099338	1.632618	8510.070312
5944.397024	0.091157	1.632618	8593.023437
5944.397927	0.091157	1.632618	8675.338867
5944.398845	0.091154	1.632618	8759.017578
5944.399735	0.091161	1.632618	8840.150391
5944.400691	0.091187	1.632618	8927.324219
5944.401590	0.091106	1.632618	9009.228516
5944.402483	0.091132	1.632618	9090.609375
5944.403413	0.091139	1.632618	9175.368164
5944.404325	0.091161	1.632618	9258.506836
5945.435594	1.466067	1.632855	642.137268
5945.436560	1.901122	1.632855	2478.620850
5945.437479	1.852991	1.632855	4181.519531
5945.438383	1.794448	1.632855	5803.700684
5945.439321	1.736085	1.632855	7432.148437
5945.440241	1.087467	1.632855	8432.618164
5945.441152	0.095651	1.632855	8519.755859
5945.442048	0.091102	1.632855	8601.383789
5945.442984	0.091227	1.632855	8686.772461
5945.443888	0.091260	1.632855	8769.271484
5945.444777	0.091110	1.632855	8850.267578
5945.445684	0.091176	1.632855	8932.963867
5945.446614	0.091260	1.632855	9017.835937
5945.447525	0.091176	1.632855	9100.896484
5945.448423	0.091179	1.632855	9182.775391
5945.449352	0.091183	1.632855	9267.484375
5946.485761	1.489109	1.632787	731.152466
5946.486677	1.900884	1.632787	2472.362061
5946.487585	1.853317	1.632787	4155.173828
5946.488476	1.795573	1.632787	5755.028809
5946.489443	1.735228	1.632787	7432.994629
5946.490362	1.070153	1.632787	8416.464844
5946.491254	0.095372	1.632787	8501.537109
5946.492140	0.091088	1.632787	8582.241211
5946.493091	0.091227	1.632787	8668.998047
5946.494003	0.091143	1.632787	8752.120117
5946.494898	0.091150	1.632787	8833.699219
5946.495832	0.091198	1.632787	8918.877930
5946.496737	0.091165	1.632787	9001.381836
5946.497639	0.091165	1.632787	9083.612305
5946.498528	0.091219	1.632787	9164.706055
5946.499474	0.091205	1.632787	9250.985352
5947.530727	1.487293	1.632723	682.667297
5947.531620	1.901964	1.632723	2381.121094
5947.532570	1.853650	1.632723	4142.088379
5947.533489	1.794221	1.632723	5790.977539
5947.534398	1.737250	1.632723	7370.137695
5947.535300	1.138264	1.632723	8396.851562
5947.536266	0.094611	1.632723	8488.245117
5947.537172	0.090996	1.632723	8570.687500
5947.538068	0.091040	1.632723	8652.259766
5947.539004	0.091245	1.632723	8737.665039
5947.539903	0.091168	1.632723	8819.625000
5947.540798	0.091040	1.632723	8901.105469
5947.541680	0.091095	1.632723	8981.451172
5947.542613	0.091194	1.632723	9066.535156
5947.543527	0.091154	1.632723	9149.849609
5947.544426	0.091080	1.632723	9231.730469
5948.580813	1.458003	1.632884	640.063293
5948.581706	1.902268	1.632884	2338.788818
5948.582670	1.854708	1.632884	4126.727539
5948.583580	1.795829	1.632884	5760.931641
5948.584484	1.738770	1.632884	7332.779297
5948.585421	1.136656	1.632884	8397.826172
5948.586339	0.097159	1.632884	8487.018555
5948.587247	0.091062	1.632884	8569.703125
5948.588136	0.091190	1.632884	8650.771484
5948.589064	0.091179	1.632884	8735.385742
5948.589963	0.091194	1.632884	8817.369141
5948.590867	0.091128	1.632884	8899.749023
5948.591756	0.091146	1.632884	8980.778320
5948.592709	0.091234	1.632884	9067.724609
5948.593623	0.091106	1.632884	9150.995117
5948.594522	0.091051	1.632884	9232.849609
5949.625857	1.478295	1.632743	728.799316
5949.626768	1.900796	1.632743	2460.424316
5949.627680	1.853672	1.632743	4150.973145
5949.628577	1.795386	1.632743	5761.434082
5949.629520	1.735466	1.632743	7397.978516
5949.630452	1.075920	1.632743	8400.736328
5949.631348	0.095416	1.632743	8486.229492
5949.632280	0.091161	1.632743	8571.191406
5949.633184	0.091293	1.632743	8653.719727
5949.634081	0.091187	1.632743	8735.513672
5949.634967	0.091139	1.632743	8816.262695
5949.635915	0.091300	1.632743	8902.815430
5949.636814	0.091187	1.632743	8984.791992
5949.637707	0.091154	1.632743	9066.192383
5949.638620	0.091208	1.632743	9149.465820
5949.639535	0.091263	1.632743	9232.971680
5950.675919	1.464239	1.632630	638.408386
5950.676838	1.902052	1.632630	2386.394287
5950.677741	1.856536	1.632630	4062.845947
5950.678682	1.796799	1.632630	5753.633789
5950.679601	1.738253	1.632630	7351.088379
5950.680530	1.152210	1.632630	8421.491211
5950.681416	0.098881	1.632630	8509.099609
5950.682367	0.091198	1.632630	8595.828125
5950.683272	0.091205	1.632630	8678.368164
5950.684173	0.091179	1.632630	8760.520508
5950.685061	0.091165	1.632630	8841.474609
5950.685993	0.091267	1.632630	8926.535156
5950.686904	0.091161	1.632630	9009.583008
5950.687797	0.091139	1.632630	9090.969727
5950.688731	0.091157	1.632630	9176.110352
5950.689633	0.091227	1.632630	9258.396484
5951.720934	1.461002	1.632807	680.827026
5951.721843	1.901642	1.632807	2409.419434
5951.722787	1.854064	1.632807	4159.655762
5951.723707	1.793408	1.632807	5809.591309
5951.724623	1.736217	1.632807	7399.965820
5951.725523	1.135781	1.632807	8422.168945
5951.726460	0.095405	1.632807	8511.563477
5951.727363	0.091055	1.632807	8593.786133
5951.728280	0.091113	1.632807	8677.336914
5951.729176	0.091051	1.632807	8758.918945
5951.730127	0.091106	1.632807	8845.560547
5951.731026	0.091080	1.632807	8927.441406
5951.731918	0.091099	1.632807	9008.701172
5951.732848	0.091201	1.632807	9093.518555
5951.733759	0.091128	1.632807	9176.536133
5951.734651	0.091033	1.632807	9257.737305
5952.771017	1.459479	1.632739	640.711182
5952.771989	1.900517	1.632739	2488.014160
5952.772893	1.853298	1.632739	4163.395996
5952.773799	1.794576	1.632739	5789.282227
5952.774695	1.737905	1.632739	7346.445312
5952.775660	1.094747	1.632739	8402.876953
5952.776567	0.095618	1.632739	8489.602539
5952.777463	0.091091	1.632739	8571.220703
5952.778376	0.091113	1.632739	8654.407227
5952.779288	0.091234	1.632739	8737.612305
5952.780194	0.091066	1.632739	8820.118164
5952.781084	0.091036	1.632739	8901.140625
5952.782017	0.091135	1.632739	8986.169922
5952.782920	0.091102	1.632739	9068.435547
5952.783819	0.091117	1.632739	9150.349609
5952.784704	0.091113	1.632739	9230.984375
5953.816072	1.524635	1.632719	759.268188
5953.816989	1.900228	1.632719	2501.777344
5953.817919	1.851526	1.632719	4223.696289
5953.818814	1.793071	1.632719	5828.495117
5953.819775	1.733287	1.632719	7494.184082
5953.820681	1.040369	1.632719	8436.757812
5953.821568	0.094786	1.632719	8520.833008
5953.822508	0.091077	1.632719	8606.445312
5953.823413	0.091044	1.632719	8688.839844
5953.824318	0.091099	1.632719	8771.284180
5953.825215	0.091117	1.632719	8853.015625
5953.826161	0.091157	1.632719	8939.250000
5953.827065	0.091080	1.632719	9021.586914
5953.827954	0.091099	1.632719	9102.573242
5953.828880	0.091176	1.632719	9187.001953
5953.829786	0.091102	1.632719	9269.541016
5954.866641	1.472468	1.632678	656.720825
5954.867549	1.902367	1.632678	2384.070068
5954.868488	1.855075	1.632678	4125.985352
5954.869409	1.795290	1.632678	5779.447754
5954.870325	1.737598	1.632678	7371.086914
5954.871226	1.156992	1.632678	8413.537109
5954.872170	0.096471	1.632678	8504.605469
5954.873077	0.091084	1.632678	8587.218750
5954.873971	0.091139	1.632678	8668.697266
5954.874905	0.091198	1.632678	8753.875977
5954.875816	0.091146	1.632678	8836.910156
5954.876718	0.091117	1.632678	8919.097656
5954.877608	0.091241	1.632678	9000.302734
5954.878544	0.091252	1.632678	9085.714844
5954.879447	0.091154	1.632678	9168.026367
5954.880352	0.091161	1.632678	9250.527344
5955.911112	1.449481	1.632859	624.726379
5955.912050	1.901550	1.632859	2408.380615
5955.912974	1.854770	1.632859	4122.188477
5955.913886	1.795734	1.632859	5759.897461
5955.914782	1.738997	1.632859	7318.038574
5955.915759	1.101108	1.632859	8393.821289
5955.916655	0.096398	1.632859	8480.193359
5955.917541	0.091146	1.632859	8560.949219
5955.918462	0.091198	1.632859	8644.942383
5955.919376	0.091201	1.632859	8728.299805
5955.920269	0.091073	1.632859	8809.627930
5955.921159	0.091143	1.632859	8890.745117
5955.922095	0.091208	1.632859	8976.116211
5955.923006	0.091139	1.632859	9059.143555
5955.923901	0.091139	1.632859	9140.712891
5955.924828	0.091267	1.632859	9225.317383
5956.961758	1.477280	1.632795	661.821533
5956.962670	1.901953	1.632795	2396.402832
5956.963577	1.856118	1.632795	4079.901855
5956.964477	1.796788	1.632795	5697.011230
5956.965433	1.738136	1.632795	7358.668945
5956.966360	1.148159	1.632795	8423.012695
5956.967256	0.097775	1.632795	8510.619141
5956.968181	0.091135	1.632795	8594.918945
5956.969082	0.091187	1.632795	8677.078125
5956.969984	0.091146	1.632795	8759.291992
5956.970871	0.091157	1.632795	8840.148437
5956.971812	0.091278	1.632795	8926.041016
5956.972706	0.091219	1.632795	9007.590820
5956.973613	0.091223	1.632795	9090.330078
5956.974525	0.091183	1.632795	9173.489258
5956.975445	0.091256	1.632795	9257.445312
5958.005714	1.470765	1.632815	653.019897
5958.006620	1.902495	1.632815	2376.680420
5958.007516	1.856960	1.632815	4040.517090
5958.008478	1.795968	1.632815	5768.238281
5958.009394	1.738264	1.632815	7360.488281
5958.010301	1.176804	1.632815	8427.849609
5958.011241	0.099661	1.632815	8521.530273
5958.012138	0.091187	1.632815	8603.324219
5958.013037	0.091095	1.632815	8685.218750
5958.013924	0.091121	1.632815	8766.042969
5958.014852	0.091176	1.632815	8850.654297
5958.015760	0.091201	1.632815	8933.464844
5958.016665	0.091198	1.632815	9015.999023
5958.017550	0.091187	1.632815	9096.699219
5958.018490	0.091194	1.632815	9182.421875
5958.019402	0.091172	1.632815	9265.570312
5959.057354	1.452828	1.632948	634.885986
5959.058303	1.901539	1.632948	2439.446777
5959.059231	1.853742	1.632948	4159.718750
5959.060136	1.795005	1.632948	5784.198242
5959.061031	1.738583	1.632948	7340.229492
5959.061976	1.126871	1.632948	8405.123047
5959.062893	0.096749	1.632948	8493.841797
5959.063785	0.091069	1.632948	8575.075195
5959.064675	0.091187	1.632948	8656.231445
5959.065597	0.091128	1.632948	8740.250977
5959.066499	0.091102	1.632948	8822.424805
5959.067416	0.091113	1.632948	8905.975586
5959.068311	0.091084	1.632948	8987.496094
5959.069267	0.091157	1.632948	9074.642578
5959.070171	0.091117	1.632948	9157.012695
5959.071062	0.091179	1.632948	9238.252930
5960.101390	1.545959	1.632682	768.341858
5960.102299	1.900891	1.632682	2496.251953
5960.103205	1.853679	1.632682	4175.685059
5960.104097	1.794954	1.632682	5776.783691
5960.105048	1.736543	1.632682	7428.236328
5960.105964	1.108931	1.632682	8444.016602
5960.106859	0.096456	1.632682	8530.344727
5960.107791	0.091198	1.632682	8615.340820
5960.108697	0.091135	1.632682	8697.909180
5960.109599	0.091117	1.632682	8780.096680
5960.110490	0.091146	1.632682	8861.307617
5960.111434	0.091256	1.632682	8947.453125
5960.112334	0.091161	1.632682	9029.498047
5960.113236	0.091143	1.632682	9111.708984
5960.114124	0.091172	1.632682	9192.669922
5960.115059	0.091201	1.632682	9277.943359
5961.152486	1.481796	1.632650	678.662415
5961.153381	1.902195	1.632650	2381.126709
5961.154275	1.856664	1.632650	4040.984131
5961.155215	1.796825	1.632650	5729.999512
5961.156125	1.739359	1.632650	7312.816406
5961.157020	1.229454	1.632650	8413.177734
5961.157942	0.103217	1.632650	8508.343750
5961.158857	0.091110	1.632650	8591.708984
5961.159760	0.091154	1.632650	8674.020508
5961.160651	0.091124	1.632650	8755.211914
5961.161593	0.091187	1.632650	8841.109375
5961.162494	0.091113	1.632650	8923.202148
5961.163399	0.091165	1.632650	9005.706055
5961.164291	0.091150	1.632650	9087.011719
5961.165232	0.091238	1.632650	9172.866211
5961.166137	0.091183	1.632650	9255.386719
5962.196429	1.457314	1.632980	636.846436
5962.197349	1.901547	1.632980	2386.269287
5962.198285	1.855162	1.632980	4122.701172
5962.199196	1.796045	1.632980	5758.897949
5962.200092	1.739443	1.632980	7317.439453
5962.201044	1.141512	1.632980	8404.159180
5962.201943	0.097797	1.632980	8492.078125
5962.202839	0.091132	1.632980	8573.732422
5962.203725	0.091099	1.632980	8654.446289
5962.204661	0.091245	1.632980	8739.851562
5962.205568	0.091176	1.632980	8822.547852
5962.206462	0.091154	1.632980	8904.039062
5962.207377	0.091106	1.632980	8987.401367
5962.208299	0.091201	1.632980	9071.489258
5962.209211	0.091110	1.632980	9154.581055
5962.210102	0.091088	1.632980	9235.740234
5963.247564	1.477738	1.632143	651.682495
5963.248541	1.900558	1.632143	2508.527588
5963.249443	1.853170	1.632143	4180.086914
5963.250339	1.794950	1.632143	5788.362305
5963.251272	1.736715	1.632143	7408.717773
5963.252203	1.095571	1.632143	8428.694336
5963.253102	0.095878	1.632143	8514.888672
5963.253993	0.091033	1.632143	8595.999023
5963.254946	0.091201	1.632143	8682.914062
5963.255845	0.091091	1.632143	8764.804687
5963.256736	0.091146	1.632143	8846.015625
5963.257678	0.091179	1.632143	8931.906250
5963.258582	0.091139	1.632143	9014.295898
5963.259478	0.091066	1.632143	9095.890625
5963.260362	0.091110	1.632143	9176.431641
5963.261283	0.091245	1.632143	9260.468750
5964.291539	1.472296	1.632807	652.227173
5964.292444	1.902433	1.632807	2373.928955
5964.293339	1.857532	1.632807	4036.419922
5964.294281	1.797144	1.632807	5729.329102
5964.295193	1.739388	1.632807	7315.651367
5964.296120	1.190526	1.632807	8419.269531
5964.297012	0.100807	1.632807	8509.189453
5964.297953	0.091146	1.632807	8594.958008
5964.298850	0.091172	1.632807	8676.739258
5964.299741	0.091194	1.632807	8757.993164
5964.300678	0.091245	1.632807	8843.490234
5964.301584	0.091267	1.632807	8926.177734
5964.302486	0.091055	1.632807	9008.308594
5964.303379	0.091084	1.632807	9089.646484
5964.304325	0.091154	1.632807	9175.877930
5964.305225	0.091132	1.632807	9257.896484
5965.343184	1.463042	1.632779	642.275391
5965.344081	1.901419	1.632779	2347.847900
5965.345045	1.854247	1.632779	4135.341797
5965.345956	1.795283	1.632779	5770.844727
5965.346854	1.737836	1.632779	7331.421387
5965.347828	1.093140	1.632779	8396.139648
5965.348731	0.095863	1.632779	8482.704102
5965.349630	0.091110	1.632779	8564.611328
5965.350563	0.091216	1.632779	8649.715820
5965.351461	0.091157	1.632779	8731.575195
5965.352358	0.091201	1.632779	8813.382812
5965.353242	0.091110	1.632779	8893.923828
5965.354181	0.091238	1.632779	8979.595703
5965.355082	0.091198	1.632779	9061.764648
5965.355981	0.091168	1.632779	9143.724609
5965.356869	0.091230	1.632779	9224.737305
5966.387201	1.501425	1.632847	735.698059
5966.388128	1.900876	1.632847	2497.810547
5966.389038	1.852727	1.632847	4183.791992
5966.389934	1.794320	1.632847	5791.502930
5966.390878	1.735367	1.632847	7429.689941
5966.391795	1.083274	1.632847	8423.051758
5966.392682	0.095903	1.632847	8508.118164
5966.393587	0.091146	1.632847	8590.605469
5966.394509	0.091300	1.632847	8674.784180
5966.395419	0.091069	1.632847	8757.657227
5966.396316	0.091146	1.632847	8839.415039
5966.397246	0.091172	1.632847	8924.205078
5966.398160	0.091205	1.632847	9007.566406
5966.399066	0.091132	1.632847	9090.131836
5966.399958	0.091135	1.632847	9171.424805
5966.400913	0.091238	1.632847	9258.556641
5967.437772	1.459178	1.632896	639.120178
5967.438686	1.902165	1.632896	2377.699463
5967.439594	1.856601	1.632896	4063.493652
5967.440521	1.797166	1.632896	5729.465820
5967.441432	1.739711	1.632896	7314.342285
5967.442347	1.213205	1.632896	8424.425781
5967.443234	0.102616	1.632896	8515.446289
5967.444178	0.091234	1.632896	8601.571289
5967.445076	0.091179	1.632896	8683.450195
5967.445968	0.091146	1.632896	8764.752930
5967.446892	0.091128	1.632896	8848.955078
5967.447804	0.091260	1.632896	8932.183594
5967.448706	0.091135	1.632896	9014.387695
5967.449608	0.091139	1.632896	9096.594727
5967.450548	0.091168	1.632896	9182.292969
5967.451446	0.091249	1.632896	9264.234375
5968.482254	1.455967	1.632815	636.257507
5968.483150	1.902004	1.632815	2340.453369
5968.484116	1.854661	1.632815	4132.055664
5968.485031	1.795323	1.632815	5774.776367
5968.485931	1.738389	1.632815	7339.326172
5968.486877	1.139498	1.632815	8417.291992
5968.487777	0.097756	1.632815	8505.272461
5968.488669	0.091088	1.632815	8586.522461
5968.489553	0.091135	1.632815	8667.085937
5968.490477	0.091212	1.632815	8751.366211
5968.491373	0.091216	1.632815	8833.095703
5968.492279	0.091161	1.632815	8915.687500
5968.493194	0.091172	1.632815	8999.109375
5968.494081	0.091135	1.632815	9079.946289
5968.495047	0.091088	1.632815	9167.936523
5968.495949	0.091095	1.632815	9250.104492
5969.532369	1.459186	1.632690	639.123352
5969.533294	1.901440	1.632690	2397.955811
5969.534237	1.854228	1.632690	4146.493164
5969.535159	1.794551	1.632690	5801.068848
5969.536060	1.737579	1.632690	7366.627930
5969.537006	1.097307	1.632690	8404.680664
5969.537914	0.095793	1.632690	8491.661133
5969.538817	0.091124	1.632690	8573.946289
5969.539704	0.091157	1.632690	8654.802734
5969.540648	0.091296	1.632690	8740.986328
5969.541558	0.091128	1.632690	8823.913086
5969.542453	0.091161	1.632690	8905.501953
5969.543375	0.091260	1.632690	8989.643555
5969.544276	0.091172	1.632690	9071.789062
5969.545182	0.091187	1.632690	9154.404297
5969.546074	0.091187	1.632690	9235.742187
5970.577917	1.519200	1.632767	718.581787
5970.578826	1.901737	1.632767	2447.260742
5970.579722	1.855521	1.632767	4109.807617
5970.580666	1.795228	1.632767	5804.502930
5970.581589	1.736803	1.632767	7407.572266
5970.582495	1.136942	1.632767	8437.641602
5970.583380	0.098119	1.632767	8524.476562
5970.584324	0.091139	1.632767	8610.511719
5970.585228	0.091238	1.632767	8692.990234
5970.586116	0.091102	1.632767	8773.888672
5970.587036	0.091179	1.632767	8857.773437
5970.587951	0.091205	1.632767	8941.225586
5970.588861	0.091143	1.632767	9024.165039
5970.589758	0.091176	1.632767	9105.949219
5970.590703	0.091219	1.632767	9192.151367
5970.591610	0.091124	1.632767	9274.800781
5971.627475	1.474116	1.632614	655.981689
5971.628378	1.902755	1.632614	2374.169434
5971.629271	1.857935	1.632614	4033.305176
5971.630241	1.795924	1.632614	5775.351562
5971.631146	1.738337	1.632614	7348.546875
5971.632063	1.173311	1.632614	8424.472656
5971.632944	0.099877	1.632614	8512.463867
5971.633881	0.091154	1.632614	8597.875000
5971.634789	0.091168	1.632614	8680.655273
5971.635688	0.091205	1.632614	8762.648437
5971.636619	0.091161	1.632614	8847.519531
5971.637519	0.091238	1.632614	8929.633789
5971.638419	0.091198	1.632614	9011.711914
5971.639310	0.091223	1.632614	9092.992187
5971.640267	0.091267	1.632614	9180.334961
5971.641173	0.091157	1.632614	9262.923828
5972.673509	1.485308	1.632755	677.300293
5972.674422	1.901645	1.632755	2413.502441
5972.675329	1.855371	1.632755	4096.324219
5972.676230	1.795774	1.632755	5714.316406
5972.677192	1.736711	1.632755	7385.032715
5972.678116	1.117412	1.632755	8417.521484
5972.679015	0.096449	1.632755	8504.229492
5972.679944	0.091135	1.632755	8588.894531
5972.680853	0.091205	1.632755	8671.799805
5972.681754	0.091091	1.632755	8753.873047
5972.682643	0.091099	1.632755	8834.859375
5972.683587	0.091219	1.632755	8920.970703
5972.684487	0.091143	1.632755	9002.999023
5972.685377	0.091150	1.632755	9084.122070
5972.686281	0.091099	1.632755	9166.475586
5972.687220	0.091201	1.632755	9252.113281
5973.722574	1.471469	1.632175	654.803528
5973.723534	1.900847	1.632175	2479.616943
5973.724461	1.852588	1.632175	4196.965820
5973.725367	1.793580	1.632175	5821.949707
5973.726290	1.736191	1.632175	7424.454102
5973.727217	1.079916	1.632175	8425.536133
5973.728123	0.095354	1.632175	8511.926758
5973.729013	0.091040	1.632175	8592.952148
5973.729959	0.091150	1.632175	8679.179687
5973.730857	0.091161	1.632175	8761.041992
5973.731756	0.091106	1.632175	8842.946289
5973.732667	0.091150	1.632175	8925.983398
5973.733568	0.091150	1.632175	9008.109375
5973.734528	0.091165	1.632175	9095.626953
5973.735434	0.091117	1.632175	9178.178711
5973.736326	0.091172	1.632175	9259.503906
5974.769093	1.450686	1.632755	629.597717
5974.770043	1.901554	1.632755	2436.073975
5974.770962	1.854097	1.632755	4139.988770
5974.771867	1.795510	1.632755	5764.925781
5974.772792	1.737832	1.632755	7372.420410
5974.773735	1.105909	1.632755	8415.292969
5974.774637	0.096127	1.632755	8501.999023
5974.775528	0.091051	1.632755	8583.125000
5974.776463	0.091128	1.632755	8668.330078
5974.777363	0.091121	1.632755	8750.338867
5974.778255	0.091055	1.632755	8831.559570
5974.779145	0.091062	1.632755	8912.604492
5974.780074	0.091172	1.632755	8997.302734
5974.780990	0.091055	1.632755	9080.708984
5974.781886	0.091077	1.632755	9162.313477
5974.782803	0.091135	1.632755	9245.884766
5975.816665	1.479829	1.631526	657.044128
5975.817586	1.901924	1.631526	2408.715820
5975.818489	1.855895	1.631526	4084.588867
5975.819422	1.796726	1.631526	5760.934570
5975.820342	1.738088	1.631526	7359.975586
5975.821265	1.151748	1.631526	8423.039062
5975.822166	0.097562	1.631526	8510.942383
5975.823058	0.091007	1.631526	8592.121094
5975.824013	0.091095	1.631526	8679.117187
5975.824920	0.091121	1.631526	8761.763672
5975.825838	0.091080	1.631526	8845.375000
5975.826727	0.091121	1.631526	8926.380859
5975.827663	0.091077	1.631526	9011.628906
5975.828570	0.091168	1.631526	9094.318359
5975.829463	0.091099	1.631526	9175.669922
5975.830389	0.091168	1.631526	9260.091797
5976.864720	1.462460	1.633013	646.407166
5976.865614	1.902191	1.633013	2346.966064
5976.866586	1.854214	1.633013	4149.261719
5976.867506	1.794584	1.633013	5800.278809
5976.868413	1.737448	1.633013	7376.143555
5976.869359	1.096659	1.633013	8413.583008
5976.870256	0.096310	1.633013	8499.972656
5976.871151	0.091040	1.633013	8581.453125
5976.872035	0.091161	1.633013	8662.039062
5976.872979	0.091234	1.633013	8748.164062
5976.873888	0.091187	1.633013	8831.052734
5976.874788	0.091117	1.633013	8913.057617
5976.875676	0.091121	1.633013	8993.972656
5976.876627	0.091205	1.633013	9080.708008
5976.877534	0.091194	1.633013	9163.420898
5976.878432	0.091069	1.633013	9245.201172
5977.911776	1.480056	1.632839	670.465454
5977.912672	1.902422	1.632839	2375.035400
5977.913620	1.855133	1.632839	4133.701660
5977.914533	1.795488	1.632839	5772.982422
5977.915451	1.736971	1.632839	7367.522461
5977.916361	1.151770	1.632839	8415.632812
5977.917309	0.095442	1.632839	8506.111328
5977.918221	0.091095	1.632839	8589.189453
5977.919115	0.091124	1.632839	8670.654297
5977.920052	0.091172	1.632839	8756.082031
5977.920960	0.091033	1.632839	8838.739258
5977.921867	0.091161	1.632839	8921.421875
5977.922762	0.091080	1.632839	9002.938477
5977.923701	0.091249	1.632839	9088.621094
5977.924604	0.091139	1.632839	9170.919922
5977.925492	0.091150	1.632839	9251.861328
5978.960348	1.486110	1.632646	667.263245
5978.961252	1.902543	1.632646	2387.161865
5978.962145	1.856473	1.632646	4044.992676
5978.963106	1.795953	1.632646	5770.903809
5978.964030	1.737667	1.632646	7376.508301
5978.964931	1.164522	1.632646	8425.742187
5978.965864	0.098752	1.632646	8517.877930
5978.966767	0.091132	1.632646	8600.169922
5978.967662	0.091121	1.632646	8681.722656
5978.968551	0.091135	1.632646	8762.742187
5978.969471	0.091183	1.632646	8846.630859
5978.970367	0.091106	1.632646	8928.261719
5978.971264	0.091117	1.632646	9009.993164
5978.972153	0.091168	1.632646	9091.041992
5978.973102	0.091208	1.632646	9177.598633
5978.974004	0.091117	1.632646	9259.786133
5980.006380	1.496821	1.632799	694.525085
5980.007296	1.901093	1.632799	2435.925781
5980.008206	1.854628	1.632799	4123.636719
5980.009142	1.794719	1.632799	5803.494141
5980.010063	1.736400	1.632799	7402.718750
5980.010975	1.126395	1.632799	8429.991211
5980.011863	0.097456	1.632799	8516.532227
5980.012818	0.091128	1.632799	8603.559570
5980.013713	0.091190	1.632799	8685.174805
5980.014611	0.091143	1.632799	8767.020508
5980.015498	0.091106	1.632799	8847.831055
5980.016443	0.091168	1.632799	8933.985352
5980.017345	0.091091	1.632799	9016.149414
5980.018243	0.091179	1.632799	9098.028320
5980.019166	0.091176	1.632799	9182.183594
5980.020073	0.091227	1.632799	9264.926758
5981.056007	1.531926	1.632662	749.111938
5981.056918	1.901147	1.632662	2481.057129
5981.057818	1.854316	1.632662	4149.941895
5981.058710	1.795272	1.632662	5751.324707
5981.059660	1.736664	1.632662	7401.155273
5981.060581	1.121825	1.632662	8434.356445
5981.061479	0.096636	1.632662	8521.135742
5981.062408	0.091157	1.632662	8605.820312
5981.063314	0.091128	1.632662	8688.381836
5981.064210	0.091143	1.632662	8770.045898
5981.065096	0.091121	1.632662	8850.778320
5981.066037	0.091252	1.632662	8936.646484
5981.066935	0.091176	1.632662	9018.522461
5981.067831	0.091132	1.632662	9100.176758
5981.068747	0.091154	1.632662	9183.673828
5981.069645	0.091187	1.632662	9265.559570
5982.101453	1.455300	1.632727	635.966248
5982.102398	1.901528	1.632727	2432.910645
5982.103309	1.855045	1.632727	4122.856934
5982.104207	1.796484	1.632727	5736.099609
5982.105104	1.739410	1.632727	7296.350586
5982.106072	1.136660	1.632727	8396.637695
5982.106977	0.097112	1.632727	8484.523437
5982.107874	0.091157	1.632727	8566.291016
5982.108802	0.091234	1.632727	8650.956055
5982.109705	0.091282	1.632727	8733.383789
5982.110612	0.091135	1.632727	8816.042969
5982.111502	0.091161	1.632727	8897.175781
5982.112433	0.091172	1.632727	8982.056641
5982.113339	0.091146	1.632727	9064.634766
5982.114235	0.091110	1.632727	9146.268555
5982.115122	0.091132	1.632727	9227.102539
5983.151559	1.455963	1.632860	634.799927
5983.152517	1.901140	1.632860	2456.092285
5983.153439	1.853346	1.632860	4164.877441
5983.154343	1.794686	1.632860	5787.273926
5983.155256	1.737224	1.632860	7373.359375
5983.156207	1.091488	1.632860	8411.364258
5983.157113	0.095629	1.632860	8498.003906
5983.158017	0.091102	1.632860	8580.360352
5983.158907	0.091121	1.632860	8661.458008
5983.159844	0.091110	1.632860	8746.828125
5983.160749	0.091066	1.632860	8829.242187
5983.161656	0.091139	1.632860	8911.905273
5983.162551	0.091117	1.632860	8993.455078
5983.163486	0.091135	1.632860	9078.666992
5983.164394	0.091044	1.632860	9161.334961
5983.165284	0.091135	1.632860	9242.445312
5984.196562	1.472780	1.632719	652.441345
5984.197466	1.902550	1.632719	2372.346680
5984.198360	1.856653	1.632719	4032.194336
5984.199325	1.795917	1.632719	5765.253906
5984.200239	1.738458	1.632719	7354.204590
5984.201139	1.191749	1.632719	8426.779297
5984.202074	0.099976	1.632719	8520.256836
5984.202976	0.091095	1.632719	8602.424805
5984.203879	0.091113	1.632719	8684.700195
5984.204772	0.091132	1.632719	8766.081055
5984.205707	0.091260	1.632719	8851.409180
5984.206612	0.091080	1.632719	8933.836914
5984.207518	0.091165	1.632719	9016.431641
5984.208408	0.091099	1.632719	9097.509766
5984.209353	0.091245	1.632719	9183.736328
5984.210262	0.091154	1.632719	9266.594727
5985.246674	1.464913	1.632755	653.351379
5985.247569	1.902795	1.632755	2356.353271
5985.248507	1.856030	1.632755	4097.309570
5985.249420	1.796510	1.632755	5737.523437
5985.250330	1.739564	1.632755	7320.526855
5985.251230	1.219222	1.632755	8417.827148
5985.252174	0.098448	1.632755	8510.762695
5985.253080	0.091106	1.632755	8593.304687
5985.253988	0.091058	1.632755	8675.985352
5985.254906	0.091146	1.632755	8759.657227
5985.255790	0.091172	1.632755	8840.252930
5985.256730	0.091146	1.632755	8925.930664
5985.257625	0.091080	1.632755	9007.447266
5985.258513	0.091168	1.632755	9088.404297
5985.259451	0.091194	1.632755	9173.944336
5985.260356	0.091124	1.632755	9256.412109
5986.291712	1.479855	1.632710	725.128784
5986.292637	1.900873	1.632710	2483.436035
5986.293546	1.853002	1.632710	4167.814453
5986.294451	1.794177	1.632710	5791.544922
5986.295403	1.734763	1.632710	7443.039551
5986.296323	1.055636	1.632710	8414.224609
5986.297220	0.095087	1.632710	8499.517578
5986.298107	0.091165	1.632710	8580.380859
5986.299046	0.091238	1.632710	8666.052734
5986.299950	0.091172	1.632710	8748.471680
5986.300851	0.091183	1.632710	8830.626953
5986.301788	0.091187	1.632710	8916.068359
5986.302696	0.091230	1.632710	8998.905273
5986.303598	0.091146	1.632710	9081.119141
5986.304485	0.091124	1.632710	9161.946289
5986.305436	0.091249	1.632710	9248.723633
5987.341263	1.472651	1.632771	656.802490
5987.342227	1.900811	1.632771	2489.184082
5987.343145	1.852800	1.632771	4190.054687
5987.344049	1.793870	1.632771	5811.712891
5987.344988	1.736239	1.632771	7442.041016
5987.345906	1.075906	1.632771	8429.722656
5987.346805	0.095442	1.632771	8515.525391
5987.347694	0.091099	1.632771	8596.511719
5987.348649	0.091205	1.632771	8683.612305
5987.349543	0.091168	1.632771	8765.116211
5987.350440	0.091157	1.632771	8846.883789
5987.351329	0.091066	1.632771	8927.840820
5987.352271	0.091157	1.632771	9013.710937
5987.353179	0.091154	1.632771	9096.478516
5987.354079	0.091117	1.632771	9178.483398
5987.355006	0.091110	1.632771	9262.942383
5988.387274	1.452521	1.632747	630.393982
5988.388216	1.901631	1.632747	2421.730225
5988.389121	1.855895	1.632747	4101.315430
5988.390022	1.797609	1.632747	5720.960937
5988.390916	1.740883	1.632747	7277.310059
5988.391864	1.175933	1.632747	8392.093750
5988.392776	0.098679	1.632747	8482.088867
5988.393680	0.091080	1.632747	8564.425781
5988.394567	0.091110	1.632747	8645.240234
5988.395526	0.091241	1.632747	8732.741211
5988.396439	0.091128	1.632747	8815.941406
5988.397330	0.091146	1.632747	8897.152344
5988.398261	0.091139	1.632747	8982.002930
5988.399164	0.091157	1.632747	9064.318359
5988.400062	0.091095	1.632747	9146.122070
5988.400949	0.091132	1.632747	9226.956055
5989.436383	1.480518	1.632735	678.077087
5989.437277	1.902422	1.632735	2378.842285
5989.438223	1.854968	1.632735	4133.642578
5989.439138	1.795404	1.632735	5776.437500
5989.440044	1.738367	1.632735	7351.397461
5989.440947	1.188201	1.632735	8424.342773
5989.441912	0.095497	1.632735	8516.497070
5989.442820	0.091051	1.632735	8599.171875
5989.443715	0.091099	1.632735	8680.705078
5989.444622	0.091088	1.632735	8763.321289
5989.445538	0.091157	1.632735	8846.821289
5989.446442	0.091062	1.632735	8929.141602
5989.447331	0.091051	1.632735	9010.085937
5989.448257	0.091022	1.632735	9094.372070
5989.449166	0.091201	1.632735	9177.274414
5989.450069	0.091172	1.632735	9259.602539
5990.482388	1.472062	1.632686	650.651306
5990.483289	1.902612	1.632686	2364.905029
5990.484186	1.857777	1.632686	4031.331055
5990.485127	1.798513	1.632686	5723.731934
5990.486032	1.740088	1.632686	7298.511719
5990.486934	1.244150	1.632686	8420.735352
5990.487846	0.103993	1.632686	8515.577148
5990.488771	0.091088	1.632686	8599.833008
5990.489682	0.091044	1.632686	8682.773437
5990.490578	0.091011	1.632686	8764.319336
5990.491507	0.091080	1.632686	8848.932617
5990.492415	0.091091	1.632686	8931.643555
5990.493320	0.091018	1.632686	9014.014648
5990.494212	0.091113	1.632686	9095.288086
5990.495157	0.091110	1.632686	9181.386719
5990.496061	0.091069	1.632686	9263.713867
5991.531539	1.548128	1.632952	789.545044
5991.532454	1.900408	1.632952	2528.417969
5991.533361	1.852771	1.632952	4208.881348
5991.534254	1.793738	1.632952	5810.689453
5991.535191	1.735525	1.632952	7436.875977
5991.536114	1.086196	1.632952	8439.435547
5991.537012	0.095544	1.632952	8525.234375
5991.537949	0.091128	1.632952	8610.621094
5991.538855	0.091274	1.632952	8693.315430
5991.539758	0.091139	1.632952	8775.614258
5991.540648	0.091113	1.632952	8856.705078
5991.541599	0.091234	1.632952	8943.468750
5991.542504	0.091135	1.632952	9025.946289
5991.543401	0.091208	1.632952	9107.760742
5991.544291	0.091168	1.632952	9188.900391
5991.545241	0.091307	1.632952	9275.642578
5992.577990	1.462112	1.632714	637.480774
5992.578968	1.900712	1.632714	2496.376709
5992.579869	1.853335	1.632714	4166.231445
5992.580766	1.795030	1.632714	5776.374023
5992.581717	1.735964	1.632714	7427.276367
5992.582647	1.067728	1.632714	8420.263672
5992.583550	0.094918	1.632714	8505.974609
5992.584439	0.091022	1.632714	8586.892578
5992.585396	0.091113	1.632714	8674.087891
5992.586298	0.091058	1.632714	8756.222656
5992.587189	0.091088	1.632714	8837.381836
5992.588103	0.091117	1.632714	8920.663086
5992.589019	0.091139	1.632714	9004.146484
5992.589924	0.091102	1.632714	9086.593750
5992.590810	0.091208	1.632714	9167.404297
5992.591742	0.091194	1.632714	9252.396484
5993.626581	1.472146	1.632771	656.577087
5993.627476	1.901503	1.632771	2358.421875
5993.628440	1.854283	1.632771	4145.951172
5993.629359	1.794983	1.632771	5795.540527
5993.630257	1.738114	1.632771	7356.367187
5993.631202	1.104701	1.632771	8400.309570
5993.632111	0.096024	1.632771	8487.595703
5993.633016	0.091066	1.632771	8570.009766
5993.633906	0.091088	1.632771	8651.078125
5993.634854	0.091208	1.632771	8737.543945
5993.635759	0.091058	1.632771	8819.952148
5993.636658	0.091165	1.632771	8901.909180
5993.637572	0.091157	1.632771	8985.226562
5993.638491	0.091179	1.632771	9069.020508
5993.639400	0.091069	1.632771	9151.802734
5993.640294	0.091132	1.632771	9233.274414
5994.673622	1.472439	1.632831	659.652710
5994.674514	1.901367	1.632831	2355.672363
5994.675478	1.853822	1.632831	4142.756836
5994.676395	1.794639	1.632831	5788.440430
5994.677293	1.738224	1.632831	7349.365234
5994.678246	1.117134	1.632831	8413.994141
5994.679151	0.096321	1.632831	8501.164062
5994.680050	0.091102	1.632831	8583.065430
5994.680940	0.091091	1.632831	8664.136719
5994.681892	0.091143	1.632831	8750.904297
5994.682789	0.091047	1.632831	8832.574219
5994.683681	0.091154	1.632831	8913.882812
5994.684594	0.091187	1.632831	8997.135742
5994.685506	0.091194	1.632831	9080.304687
5994.686409	0.091168	1.632831	9162.629883
5994.687298	0.091128	1.632831	9243.642578
5995.721212	1.510173	1.632823	712.801819
5995.722129	1.901433	1.632823	2456.415771
5995.723028	1.854961	1.632823	4124.025391
5995.723927	1.795675	1.632823	5738.337402
5995.724882	1.736766	1.632823	7396.949219
5995.725811	1.107612	1.632823	8425.920898
5995.726705	0.096302	1.632823	8512.015625
5995.727641	0.091216	1.632823	8597.393555
5995.728543	0.091208	1.632823	8679.664062
5995.729446	0.091201	1.632823	8762.018555
5995.730334	0.091121	1.632823	8842.933594
5995.731287	0.091245	1.632823	8929.890625
5995.732192	0.091194	1.632823	9012.420898
5995.733081	0.091139	1.632823	9093.443359
5995.733989	0.091146	1.632823	9176.204102
5995.734917	0.091249	1.632823	9260.882812
5996.769237	1.455751	1.632860	650.720581
5996.770135	1.902803	1.632860	2359.437256
5996.771070	1.856184	1.632860	4094.969238
5996.771997	1.795799	1.632860	5759.675293
5996.772909	1.738554	1.632860	7345.236328
5996.773809	1.193756	1.632860	8419.617187
5996.774755	0.099122	1.632860	8513.386719
5996.775660	0.091080	1.632860	8595.814453
5996.776552	0.091080	1.632860	8677.057617
5996.777483	0.091198	1.632860	8761.962891
5996.778393	0.091150	1.632860	8844.909180
5996.779297	0.091194	1.632860	8927.348633
5996.780188	0.091146	1.632860	9008.559570
5996.781134	0.091249	1.632860	9094.880859
5996.782035	0.091201	1.632860	9177.052734
5996.782932	0.091227	1.632860	9258.882812
5997.816271	1.459318	1.632944	637.721802
5997.817218	1.901514	1.632944	2438.455322
5997.818130	1.854968	1.632944	4130.186523
5997.819048	1.795547	1.632944	5778.498535
5997.819953	1.738345	1.632944	7351.700684
5997.820902	1.110055	1.632944	8405.142578
5997.821804	0.096423	1.632944	8492.116211
5997.822709	0.091033	1.632944	8574.500977
5997.823598	0.091157	1.632944	8655.540039
5997.824541	0.091168	1.632944	8741.511719
5997.825442	0.091172	1.632944	8823.657227
5997.826344	0.091124	1.632944	8905.851562
5997.827279	0.091165	1.632944	8991.090820
5997.828180	0.091168	1.632944	9073.233398
5997.829077	0.091150	1.632944	9154.995117
5997.829960	0.091161	1.632944	9235.490234
5998.864852	1.478434	1.632682	659.381470
5998.865758	1.902396	1.632682	2382.952393
5998.866653	1.857590	1.632682	4045.495605
5998.867598	1.798059	1.632682	5744.661621
5998.868513	1.739260	1.632682	7336.084961
5998.869419	1.205259	1.632682	8428.049805
5998.870327	0.101385	1.632682	8520.107422
5998.871260	0.091128	1.632682	8605.129883
5998.872166	0.091073	1.632682	8687.641602
5998.873060	0.091095	1.632682	8769.080078
5998.873999	0.091154	1.632682	8854.672852
5998.874906	0.091128	1.632682	8937.326172
5998.875806	0.091069	1.632682	9019.289062
5998.876697	0.091007	1.632682	9100.375977
5998.877640	0.091190	1.632682	9186.368164
5998.878550	0.091091	1.632682	9269.261719
5999.910885	1.490592	1.632936	676.728760
5999.911800	1.901799	1.632936	2416.875000
5999.912697	1.856001	1.632936	4081.708008
5999.913622	1.796547	1.632936	5743.513672
5999.914555	1.737561	1.632936	7364.658203
5999.915483	1.133624	1.632936	8416.662109
5999.916378	0.097288	1.632936	8503.734375
5999.917316	0.091172	1.632936	8589.253906
5999.918219	0.091198	1.632936	8671.605469
5999.919114	0.091080	1.632936	8753.122070
5999.920001	0.091146	1.632936	8833.968750
5999.920943	0.091205	1.632936	8919.883789
5999.921844	0.091117	1.632936	9001.980469
5999.922744	0.091135	1.632936	9084.001953
5999.923671	0.091208	1.632936	9168.551758
5999.924578	0.091198	1.632936	9251.267578
6000.960521	1.535087	1.632461	772.148560
6000.961442	1.900653	1.632461	2522.649902
6000.962354	1.852595	1.632461	4212.216797
6000.963247	1.793599	1.632461	5813.900391
6000.964199	1.734408	1.632461	7465.056641
6000.965128	1.042196	1.632461	8433.256836
6000.966023	0.094471	1.632461	8517.808594
6000.966945	0.091106	1.632461	8601.808594
6000.967849	0.091150	1.632461	8684.208008
6000.968744	0.090989	1.632461	8765.642578
6000.969635	0.091106	1.632461	8846.818359
6000.970590	0.091154	1.632461	8933.870117
6000.971496	0.091080	1.632461	9016.388672
6000.972396	0.091091	1.632461	9098.371094
6000.973280	0.091143	1.632461	9178.941406
6000.974214	0.091216	1.632461	9264.136719
6002.005447	1.458505	1.632988	637.366516
6002.006341	1.902682	1.632988	2338.364258
6002.007306	1.854704	1.632988	4128.154297
6002.008227	1.795367	1.632988	5781.687500
6002.009137	1.737748	1.632988	7363.038086
6002.010069	1.110278	1.632988	8397.817383
6002.010991	0.096013	1.632988	8486.341797
6002.011896	0.091077	1.632988	8568.766602
6002.012785	0.091110	1.632988	8649.762695
6002.013713	0.091205	1.632988	8734.400391
6002.014615	0.091190	1.632988	8816.654297
6002.015514	0.091161	1.632988	8898.608398
6002.016401	0.091121	1.632988	8979.432617
6002.017350	0.091252	1.632988	9066.031250
6002.018254	0.091212	1.632988	9148.487305
6002.019154	0.091128	1.632988	9230.501953
6003.056073	1.448851	1.632888	624.454895
6003.057024	1.901492	1.632888	2432.773682
6003.057946	1.854206	1.632888	4142.352051
6003.058853	1.795580	1.632888	5770.942871
6003.059748	1.738341	1.632888	7326.758301
6003.060713	1.113907	1.632888	8401.678711
6003.061618	0.096500	1.632888	8489.011719
6003.062516	0.091113	1.632888	8570.831055
6003.063449	0.091205	1.632888	8655.924805
6003.064344	0.091154	1.632888	8737.506836
6003.065244	0.091088	1.632888	8819.485352
6003.066129	0.091113	1.632888	8900.120117
6003.067076	0.091198	1.632888	8986.484375
6003.067983	0.091161	1.632888	9069.166992
6003.068886	0.091080	1.632888	9151.412109
6003.069772	0.091187	1.632888	9232.203125
6004.100577	1.477804	1.632795	665.011780
6004.101492	1.901840	1.632795	2405.195068
6004.102399	1.855847	1.632795	4088.448486
6004.103344	1.795829	1.632795	5785.506836
6004.104263	1.737041	1.632795	7381.847656
6004.105180	1.136045	1.632795	8423.600586
6004.106070	0.097793	1.632795	8510.636719
6004.107029	0.091252	1.632795	8598.147461
6004.107927	0.091176	1.632795	8680.023437
6004.108830	0.091172	1.632795	8762.351562
6004.109716	0.091198	1.632795	8843.152344
6004.110659	0.091194	1.632795	8929.148437
6004.111563	0.091190	1.632795	9011.583984
6004.112459	0.091165	1.632795	9093.267578
6004.113388	0.091179	1.632795	9177.972656
6004.114293	0.091267	1.632795	9260.569336
6005.151182	1.464514	1.632674	645.850708
6005.152083	1.902920	1.632674	2360.381348
6005.152977	1.856873	1.632674	4020.425293
6005.153932	1.796722	1.632674	5736.294922
6005.154853	1.738971	1.632674	7337.887207
6005.155758	1.196510	1.632674	8420.728516
6005.156694	0.100027	1.632674	8514.353516
6005.157593	0.091183	1.632674	8596.327148
6005.158497	0.091135	1.632674	8678.713867
6005.159384	0.091066	1.632674	8759.489258
6005.160334	0.091168	1.632674	8846.098633
6005.161239	0.091238	1.632674	8928.668945
6005.162129	0.091172	1.632674	9009.811523
6005.163031	0.091139	1.632674	9092.018555
6005.163962	0.091234	1.632674	9176.958008
6005.164868	0.091091	1.632674	9259.486328
6006.195149	1.453330	1.632787	635.105225
6006.196044	1.902378	1.632787	2337.733398
6006.197008	1.855031	1.632787	4125.982910
6006.197922	1.795737	1.632787	5767.286621
6006.198828	1.738378	1.632787	7342.256836
6006.199775	1.130918	1.632787	8413.236328
6006.200676	0.097449	1.632787	8501.038086
6006.201569	0.091058	1.632787	8582.353516
6006.202455	0.091161	1.632787	8663.122070
6006.203378	0.091201	1.632787	8747.300781
6006.204281	0.091168	1.632787	8829.625977
6006.205185	0.091135	1.632787	8912.012695
6006.206073	0.091124	1.632787	8992.930664
6006.207023	0.091208	1.632787	9079.579102
6006.207923	0.091117	1.632787	9161.583984
6006.208816	0.091198	1.632787	9243.023437
6007.246333	1.485469	1.632755	726.394226
6007.247253	1.901404	1.632755	2475.685791
6007.248157	1.853994	1.632755	4151.696289
6007.249049	1.796071	1.632755	5753.791016
6007.250011	1.736177	1.632755	7423.993164
6007.250931	1.083197	1.632755	8420.534180
6007.251824	0.095577	1.632755	8505.884766
6007.252709	0.091077	1.632755	8586.487305
6007.253643	0.091187	1.632755	8671.655273
6007.254549	0.091161	1.632755	8754.247070
6007.255447	0.091113	1.632755	8836.066406
6007.256373	0.091212	1.632755	8920.529297
6007.257271	0.091219	1.632755	9002.444336
6007.258165	0.091080	1.632755	9083.870117
6007.259055	0.091124	1.632755	9164.970703
6007.260001	0.091139	1.632755	9251.188477
6008.290780	1.489380	1.632686	670.220947
6008.291687	1.902378	1.632686	2395.677734
6008.292580	1.856510	1.632686	4053.541260
6008.293532	1.796503	1.632686	5763.811523
6008.294441	1.738989	1.632686	7344.552734
6008.295342	1.200732	1.632686	8426.413086
6008.296281	0.101034	1.632686	8521.284180
6008.297185	0.091208	1.632686	8603.736328
6008.298085	0.091091	1.632686	8685.718750
6008.298977	0.091117	1.632686	8766.995117
6008.299934	0.091201	1.632686	8854.274414
6008.300832	0.091124	1.632686	8936.103516
6008.301735	0.091117	1.632686	9018.381836
6008.302624	0.091216	1.632686	9099.472656
6008.303563	0.091198	1.632686	9185.107422
6008.304468	0.091044	1.632686	9267.501953
6009.341896	1.454103	1.632807	633.988831
6009.342866	1.900734	1.632807	2477.700439
6009.343771	1.853811	1.632807	4155.399414
6009.344681	1.794976	1.632807	5788.827148
6009.345577	1.738411	1.632807	7346.442871
6009.346547	1.092129	1.632807	8405.807617
6009.347446	0.095684	1.632807	8491.827148
6009.348354	0.091058	1.632807	8574.507812
6009.349251	0.091168	1.632807	8656.286133
6009.350185	0.091172	1.632807	8741.440430
6009.351096	0.091036	1.632807	8824.375000
6009.351989	0.091110	1.632807	8905.736328
6009.352924	0.091190	1.632807	8990.999023
6009.353820	0.091179	1.632807	9072.695312
6009.354719	0.091117	1.632807	9154.609375
6009.355606	0.091205	1.632807	9235.507812
6010.385905	1.466569	1.632843	699.553223
6010.386841	1.900939	1.632843	2478.831787
6010.387758	1.852712	1.632843	4177.769043
6010.388662	1.793749	1.632843	5799.317871
6010.389603	1.735371	1.632843	7432.302246
6010.390523	1.062916	1.632843	8410.185547
6010.391421	0.095065	1.632843	8495.553711
6010.392305	0.091117	1.632843	8576.101562
6010.393242	0.091208	1.632843	8661.563477
6010.394147	0.091088	1.632843	8743.998047
6010.395040	0.091091	1.632843	8825.342773
6010.395968	0.091110	1.632843	8909.892578
6010.396870	0.091161	1.632843	8992.120117
6010.397776	0.091110	1.632843	9074.665039
6010.398672	0.091102	1.632843	9156.292969
6010.399613	0.091168	1.632843	9242.082031
6011.437024	1.485857	1.632352	665.663879
6011.437925	1.902839	1.632352	2380.122070
6011.438819	1.857316	1.632352	4040.562256
6011.439776	1.796667	1.632352	5759.973145
6011.440684	1.738693	1.632352	7338.706055
6011.441592	1.195507	1.632352	8424.226562
6011.442536	0.100543	1.632352	8519.139648
6011.443451	0.091139	1.632352	8602.532227
6011.444359	0.091077	1.632352	8685.229492
6011.445261	0.091165	1.632352	8767.459961
6011.446194	0.091135	1.632352	8852.489258
6011.447093	0.091124	1.632352	8934.410156
6011.447991	0.091121	1.632352	9016.236328
6011.448876	0.091143	1.632352	9096.897461
6011.449829	0.091176	1.632352	9183.788086
6011.450730	0.091124	1.632352	9265.890625
6012.481488	1.459105	1.632674	637.628967
6012.482432	1.901642	1.632674	2432.778809
6012.483351	1.854683	1.632674	4137.231934
6012.484271	1.794950	1.632674	5788.585937
6012.485172	1.738191	1.632674	7354.695801
6012.486115	1.114684	1.632674	8405.842773
6012.487022	0.096390	1.632674	8493.268555
6012.487921	0.091080	1.632674	8575.149414
6012.488814	0.091047	1.632674	8656.455078
6012.489761	0.091252	1.632674	8742.871094
6012.490669	0.091058	1.632674	8825.551758
6012.491564	0.091073	1.632674	8907.062500
6012.492490	0.091128	1.632674	8991.447266
6012.493388	0.091190	1.632674	9073.335937
6012.494287	0.091062	1.632674	9155.201172
6012.495171	0.091161	1.632674	9235.787109
6013.532103	1.466536	1.631921	643.809143
6013.533085	1.901096	1.631921	2510.685547
6013.534005	1.852357	1.631921	4214.854004
6013.534905	1.793580	1.631921	5829.076172
6013.535856	1.734792	1.631921	7478.863770
6013.536781	1.031169	1.631921	8432.695312
6013.537676	0.094508	1.631921	8517.280273
6013.538560	0.090974	1.631921	8597.701172
6013.539498	0.091154	1.631921	8683.203125
6013.540407	0.091102	1.631921	8766.014648
6013.541308	0.091187	1.631921	8848.173828
6013.542215	0.091095	1.631921	8930.796875
6013.543144	0.091190	1.631921	9015.512695
6013.544046	0.091069	1.631921	9097.657227
6013.544941	0.091161	1.631921	9179.246094
6013.545881	0.091234	1.631921	9265.005859
6014.576595	1.466012	1.632714	649.443298
6014.577499	1.902931	1.632714	2369.692871
6014.578390	1.858096	1.632714	4025.256104
6014.579364	1.796027	1.632714	5774.585937
6014.580275	1.738440	1.632714	7358.304687
6014.581185	1.175002	1.632714	8427.556641
6014.582080	0.099595	1.632714	8516.694336
6014.583010	0.091183	1.632714	8601.494141
6014.583922	0.091128	1.632714	8684.602539
6014.584819	0.091014	1.632714	8766.242187
6014.585710	0.091121	1.632714	8847.430664
6014.586642	0.091172	1.632714	8932.403320
6014.587557	0.091113	1.632714	9015.771484
6014.588472	0.091128	1.632714	9099.153320
6014.589360	0.091058	1.632714	9180.012695
6014.590304	0.091179	1.632714	9266.085937
6015.627221	1.477046	1.632711	661.716553
6015.628117	1.903055	1.632711	2366.854004
6015.629057	1.855730	1.632711	4111.240234
6015.629968	1.796667	1.632711	5748.004395
6015.630880	1.739352	1.632711	7334.292969
6015.631782	1.197118	1.632711	8414.093750
6015.632730	0.097614	1.632711	8506.631836
6015.633639	0.091051	1.632711	8589.397461
6015.634530	0.091121	1.632711	8670.585937
6015.635463	0.091194	1.632711	8755.669922
6015.636373	0.091263	1.632711	8838.719727
6015.637269	0.091036	1.632711	8920.288086
6015.638159	0.091154	1.632711	9001.415039
6015.639093	0.091121	1.632711	9086.521484
6015.639995	0.091168	1.632711	9168.754883
6015.640901	0.091066	1.632711	9251.260742
6016.672207	1.470099	1.633000	651.253784
6016.673194	1.899932	1.633000	2526.486328
6016.674101	1.852116	1.633000	4206.354980
6016.675027	1.792657	1.633000	5866.355957
6016.675918	1.735367	1.633000	7412.568359
6016.676887	1.014558	1.633000	8395.674805
6016.677790	0.093900	1.633000	8480.466797
6016.678680	0.091018	1.633000	8561.472656
6016.679618	0.091190	1.633000	8647.008789
6016.680514	0.091044	1.633000	8728.583984
6016.681444	0.091113	1.633000	8813.319336
6016.682335	0.091124	1.633000	8894.510742
6016.683285	0.091135	1.633000	8981.088867
6016.684183	0.091044	1.633000	9062.845703
6016.685072	0.091110	1.633000	9143.841797
6016.686004	0.091187	1.633000	9228.828125
6017.722343	1.490955	1.632694	681.366272
6017.723253	1.902114	1.632694	2412.290283
6017.724160	1.856052	1.632694	4095.729736
6017.725055	1.796950	1.632694	5703.999512
6017.726012	1.737821	1.632694	7367.094238
6017.726934	1.146804	1.632694	8424.447266
6017.727828	0.097654	1.632694	8511.750000
6017.728765	0.091135	1.632694	8597.143555
6017.729665	0.091168	1.632694	8679.195312
6017.730563	0.091058	1.632694	8760.965820
6017.731447	0.091132	1.632694	8841.526367
6017.732391	0.091168	1.632694	8927.588867
6017.733288	0.091172	1.632694	9009.370117
6017.734193	0.091121	1.632694	9091.833984
6017.735092	0.091099	1.632694	9173.731445
6017.736024	0.091146	1.632694	9258.679687
6018.767320	1.474113	1.632755	667.772949
6018.768219	1.902825	1.632755	2378.412354
6018.769162	1.855485	1.632755	4128.134277
6018.770076	1.795873	1.632755	5769.562012
6018.770982	1.738956	1.632755	7345.056641
6018.771880	1.183758	1.632755	8408.072266
6018.772821	0.097222	1.632755	8499.557617
6018.773710	0.091121	1.632755	8580.563477
6018.774599	0.091106	1.632755	8661.556641
6018.775518	0.091183	1.632755	8745.353516
6018.776439	0.091168	1.632755	8829.319336
6018.777345	0.091106	1.632755	8911.861328
6018.778234	0.091172	1.632755	8992.913086
6018.779172	0.091205	1.632755	9078.462891
6018.780080	0.091124	1.632755	9161.204102
6018.780969	0.091124	1.632755	9242.213867
6019.817419	1.457377	1.632658	635.416260
6019.818359	1.902184	1.632658	2423.469238
6019.819272	1.855690	1.632658	4117.713867
6019.820193	1.795617	1.632658	5771.476562
6019.821092	1.738894	1.632658	7334.742187
6019.822041	1.133529	1.632658	8410.460937
6019.822942	0.097002	1.632658	8497.859375
6019.823849	0.091099	1.632658	8580.486328
6019.824740	0.091157	1.632658	8661.707031
6019.825696	0.091238	1.632658	8748.930664
6019.826598	0.091113	1.632658	8831.115234
6019.827491	0.091143	1.632658	8912.505859
6019.828442	0.091198	1.632658	8999.234375
6019.829345	0.091212	1.632658	9081.598633
6019.830242	0.091073	1.632658	9163.291016
6019.831135	0.091117	1.632658	9244.658203
6020.862452	1.475588	1.632759	705.331299
6020.863403	1.900356	1.632759	2512.570312
6020.864306	1.852698	1.632759	4185.556641
6020.865204	1.793463	1.632759	5796.086426
6020.866150	1.734858	1.632759	7437.262695
6020.867067	1.070215	1.632759	8418.649414
6020.867955	0.095490	1.632759	8503.444336
6020.868888	0.091091	1.632759	8588.432617
6020.869792	0.091121	1.632759	8670.805664
6020.870689	0.091176	1.632759	8752.589844
6020.871571	0.091069	1.632759	8832.913086
6020.872497	0.091216	1.632759	8917.378906
6020.873411	0.091088	1.632759	9000.632812
6020.874309	0.091062	1.632759	9082.406250
6020.875237	0.091183	1.632759	9167.024414
6020.876140	0.091208	1.632759	9249.385742
6021.912537	1.485612	1.632722	670.010803
6021.913445	1.902678	1.632722	2397.642578
6021.914339	1.857297	1.632722	4058.066406
6021.915303	1.795594	1.632722	5789.019531
6021.916220	1.737784	1.632722	7382.567871
6021.917132	1.153272	1.632722	8434.351562
6021.918044	0.098254	1.632722	8523.959961
6021.918960	0.091150	1.632722	8607.453125
6021.919867	0.091091	1.632722	8690.073242
6021.920763	0.091146	1.632722	8771.740234
6021.921704	0.091223	1.632722	8857.581055
6021.922605	0.091157	1.632722	8939.713867
6021.923504	0.091106	1.632722	9021.618164
6021.924393	0.091154	1.632722	9102.653320
6021.925334	0.091260	1.632722	9188.528320
6021.926241	0.091157	1.632722	9271.208008
6022.957521	1.465961	1.632819	647.954590
6022.958482	1.900664	1.632819	2474.492676
6022.959406	1.853112	1.632819	4186.767578
6022.960313	1.794166	1.632819	5814.076172
6022.961203	1.737850	1.632819	7360.762695
6022.962168	1.075203	1.632819	8398.333008
6022.963073	0.095175	1.632819	8484.465820
6022.963971	0.091051	1.632819	8566.229492
6022.964858	0.091102	1.632819	8647.037109
6022.965798	0.091260	1.632819	8732.821289
6022.966699	0.091106	1.632819	8814.908203
6022.967587	0.091154	1.632819	8895.852539
6022.968533	0.091183	1.632819	8982.111328
6022.969444	0.091212	1.632819	9065.206055
6022.970336	0.091106	1.632819	9146.472656
6022.971241	0.091124	1.632819	9228.940430
6024.008197	1.521866	1.632493	756.367615
6024.009108	1.901309	1.632493	2488.459717
6024.010015	1.853958	1.632493	4169.999023
6024.010915	1.795210	1.632493	5785.687988
6024.011866	1.735953	1.632493	7436.579590
6024.012783	1.089408	1.632493	8435.566406
6024.013678	0.095757	1.632493	8521.268555
6024.014609	0.091121	1.632493	8606.101562
6024.015526	0.091157	1.632493	8689.692383
6024.016440	0.091139	1.632493	8772.993164
6024.017344	0.091095	1.632493	8855.342773
6024.018280	0.091132	1.632493	8940.641602
6024.019177	0.091128	1.632493	9022.383789
6024.020077	0.091110	1.632493	9104.382812
6024.020963	0.091150	1.632493	9185.141602
6024.021889	0.091161	1.632493	9269.556641
6025.053146	1.468550	1.632690	660.847351
6025.054050	1.902861	1.632690	2381.033936
6025.054988	1.855832	1.632690	4121.804687
6025.055906	1.795675	1.632690	5770.234375
6025.056816	1.738674	1.632690	7352.427734
6025.057721	1.186707	1.632690	8426.397461
6025.058679	0.096050	1.632690	8518.413086
6025.059587	0.091066	1.632690	8601.100586
6025.060476	0.091128	1.632690	8682.113281
6025.061414	0.091219	1.632690	8767.676758
6025.062311	0.091113	1.632690	8849.405273
6025.063202	0.091106	1.632690	8930.581055
6025.064090	0.091113	1.632690	9011.489258
6025.065033	0.091194	1.632690	9097.485352
6025.065940	0.091183	1.632690	9180.188477
6025.066840	0.091139	1.632690	9262.213867
6026.103241	1.454495	1.632747	635.614136
6026.104138	1.902466	1.632747	2342.125977
6026.105099	1.855228	1.632747	4125.000000
6026.106011	1.796155	1.632747	5763.093262
6026.106909	1.739304	1.632747	7324.988281
6026.107866	1.137572	1.632747	8413.644531
6026.108765	0.097639	1.632747	8501.421875
6026.109661	0.091051	1.632747	8583.003906
6026.110546	0.091088	1.632747	8663.616211
6026.111486	0.091128	1.632747	8749.276367
6026.112388	0.091091	1.632747	8831.440430
6026.113297	0.091124	1.632747	8914.272461
6026.114185	0.091179	1.632747	8995.239258
6026.115133	0.091234	1.632747	9081.729492
6026.116040	0.091110	1.632747	9164.366211
6026.116928	0.091099	1.632747	9245.261719
6027.148310	1.527352	1.632694	786.586426
6027.149225	1.900803	1.632694	2525.821289
6027.150125	1.853196	1.632694	4193.697266
6027.151015	1.794565	1.632694	5790.860352
6027.151971	1.735111	1.632694	7449.626465
6027.152888	1.069336	1.632694	8430.207031
6027.153781	0.095182	1.632694	8515.204102
6027.154704	0.091128	1.632694	8599.315430
6027.155619	0.091161	1.632694	8682.727539
6027.156525	0.091047	1.632694	8765.216797
6027.157411	0.091135	1.632694	8845.962891
6027.158367	0.091245	1.632694	8933.193359
6027.159273	0.091077	1.632694	9015.708984
6027.160170	0.091176	1.632694	9097.493164
6027.161103	0.091216	1.632694	9182.597656
6027.162003	0.091168	1.632694	9264.649414
6028.198875	1.480393	1.632473	660.255310
6028.199781	1.902806	1.632473	2384.197754
6028.200684	1.856283	1.632473	4060.421143
6028.201645	1.795715	1.632473	5786.103516
6028.202559	1.737803	1.632473	7374.455078
6028.203461	1.165942	1.632473	8426.134766
6028.204385	0.098610	1.632473	8517.250000
6028.205295	0.091099	1.632473	8600.149414
6028.206190	0.091106	1.632473	8681.689453
6028.207076	0.091047	1.632473	8762.357422
6028.208029	0.091187	1.632473	8849.257812
6028.208931	0.091121	1.632473	8931.448242
6028.209827	0.091121	1.632473	9013.092773
6028.210735	0.091168	1.632473	9095.873047
6028.211664	0.091208	1.632473	9180.605469
6028.212574	0.091117	1.632473	9263.521484
6029.242830	1.457479	1.632763	641.290894
6029.243732	1.902956	1.632763	2357.757812
6029.244676	1.855898	1.632763	4109.725586
6029.245603	1.795690	1.632763	5774.330078
6029.246515	1.738359	1.632763	7359.713867
6029.247420	1.168158	1.632763	8416.896484
6029.248375	0.095460	1.632763	8508.060547
6029.249270	0.091069	1.632763	8589.567383
6029.250185	0.091179	1.632763	8672.996094
6029.251083	0.091102	1.632763	8754.805664
6029.252013	0.091121	1.632763	8839.547852
6029.252911	0.091091	1.632763	8921.347656
6029.253802	0.091110	1.632763	9002.526367
6029.254732	0.091267	1.632763	9087.404297
6029.255643	0.091172	1.632763	9170.461914
6029.256543	0.091150	1.632763	9252.497070
6030.294010	1.471893	1.628360	718.283936
6030.294930	1.901429	1.628360	2467.598877
6030.295836	1.854078	1.628360	4147.393555
6030.296728	1.796103	1.628360	5749.517578
6030.297681	1.736517	1.628360	7404.418457
6030.298593	1.108381	1.628360	8415.261719
6030.299486	0.096456	1.628360	8501.397461
6030.300374	0.091066	1.628360	8582.263672
6030.301307	0.091208	1.628360	8667.361328
6030.302214	0.091014	1.628360	8749.911133
6030.303113	0.091110	1.628360	8831.818359
6030.304042	0.091208	1.628360	8916.550781
6030.304946	0.091234	1.628360	8999.026367
6030.305846	0.091069	1.628360	9080.988281
6030.306737	0.091044	1.628360	9162.108398
6030.307676	0.091205	1.628360	9247.750000
6031.338502	1.537624	1.632481	742.672607
6031.339423	1.901272	1.632481	2493.744141
6031.340317	1.854602	1.632481	4151.758301
6031.341254	1.794452	1.632481	5833.159668
6031.342170	1.736547	1.632481	7423.836426
6031.343095	1.099739	1.632481	8441.094727
6031.343987	0.096573	1.632481	8527.238281
6031.344923	0.091135	1.632481	8612.541016
6031.345815	0.091095	1.632481	8693.797852
6031.346703	0.091139	1.632481	8774.729492
6031.347631	0.091110	1.632481	8859.279297
6031.348544	0.091157	1.632481	8942.505859
6031.349454	0.091080	1.632481	9025.388672
6031.350342	0.091187	1.632481	9106.362305
6031.351267	0.091205	1.632481	9190.726562
6031.352173	0.091062	1.632481	9273.228516
6032.389078	1.467297	1.625379	647.078186
6032.389974	1.902696	1.625379	2351.894287
6032.390924	1.855104	1.625379	4114.242676
6032.391846	1.795778	1.625379	5769.949707
6032.392752	1.738619	1.625379	7345.138672
6032.393676	1.124198	1.625379	8383.897461
6032.394616	0.095599	1.625379	8473.760742
6032.395516	0.091025	1.625379	8555.683594
6032.396408	0.091128	1.625379	8636.969727
6032.397347	0.091154	1.625379	8722.562500
6032.398246	0.091190	1.625379	8804.541992
6032.399137	0.091139	1.625379	8885.747070
6032.400025	0.091143	1.625379	8966.681641
6032.400952	0.091165	1.625379	9051.191406
6032.401857	0.091077	1.625379	9133.616211
6032.402751	0.091128	1.625379	9215.084961
